Polychromatic Huygens MTFFile : C:\Users\tlian\Documents\Zemax\Samples\Navarro_Trisha_scene2retina.ZMX
Title: 
Date : 8/30/2018


Data for 0.4700 to 0.6500 Âµm.
Angular Frequency units are cycles per mr.
Modulation is relative to 1.0.

Field: 0.0000 (deg)
Spatial Frequency	  Tangential	    Sagittal
         0.000000	    1.000000	    1.000000
         0.050000	    0.978023	    0.978023
         0.100000	    0.943338	    0.943338
         0.150000	    0.885514	    0.885514
         0.200000	    0.811303	    0.811303
         0.250000	    0.734932	    0.734932
         0.300000	    0.664768	    0.664768
         0.350000	    0.604437	    0.604437
         0.400000	    0.555374	    0.555374
         0.450000	    0.516196	    0.516196
         0.500000	    0.484924	    0.484924
         0.550000	    0.458640	    0.458640
         0.600000	    0.434711	    0.434711
         0.650000	    0.412379	    0.412379
         0.700000	    0.391468	    0.391468
         0.750000	    0.372360	    0.372360
         0.800000	    0.355678	    0.355678
         0.850000	    0.341451	    0.341451
         0.900000	    0.329183	    0.329183
         0.950000	    0.318275	    0.318275
         1.000000	    0.307996	    0.307996
         1.050000	    0.297843	    0.297843
         1.100000	    0.287947	    0.287947
         1.150000	    0.278553	    0.278553
         1.200000	    0.269973	    0.269973
         1.250000	    0.262491	    0.262491
         1.300000	    0.255915	    0.255915
         1.350000	    0.249795	    0.249795
         1.400000	    0.243690	    0.243690
         1.450000	    0.237179	    0.237179
         1.500000	    0.230115	    0.230115
         1.550000	    0.222804	    0.222804
         1.600000	    0.215603	    0.215603
         1.650000	    0.208887	    0.208887
         1.700000	    0.202955	    0.202955
         1.750000	    0.197669	    0.197669
         1.800000	    0.192743	    0.192743
         1.850000	    0.187865	    0.187865
         1.900000	    0.182723	    0.182723
         1.950000	    0.177276	    0.177276
         2.000000	    0.171761	    0.171761
         2.050000	    0.166441	    0.166441
         2.100000	    0.161595	    0.161595
         2.150000	    0.157400	    0.157400
         2.200000	    0.153695	    0.153695
         2.250000	    0.150247	    0.150247
         2.300000	    0.146807	    0.146807
         2.350000	    0.143140	    0.143140
         2.400000	    0.139275	    0.139275
         2.450000	    0.135412	    0.135412
         2.500000	    0.131761	    0.131761
         2.550000	    0.128541	    0.128541
         2.600000	    0.125841	    0.125841
         2.650000	    0.123490	    0.123490
         2.700000	    0.121285	    0.121285
         2.750000	    0.119011	    0.119011
         2.800000	    0.116487	    0.116487
         2.850000	    0.113781	    0.113781
         2.900000	    0.111062	    0.111062
         2.950000	    0.108508	    0.108508
         3.000000	    0.106300	    0.106300
         3.050000	    0.104464	    0.104464
         3.100000	    0.102842	    0.102842
         3.150000	    0.101258	    0.101258
         3.200000	    0.099527	    0.099527
         3.250000	    0.097521	    0.097521
         3.300000	    0.095327	    0.095327
         3.350000	    0.093092	    0.093092
         3.400000	    0.090966	    0.090966
         3.450000	    0.089095	    0.089095
         3.500000	    0.087456	    0.087456
         3.550000	    0.085900	    0.085900
         3.600000	    0.084270	    0.084270
         3.650000	    0.082403	    0.082403
         3.700000	    0.080215	    0.080215
         3.750000	    0.077808	    0.077808
         3.800000	    0.075313	    0.075313
         3.850000	    0.072872	    0.072872
         3.900000	    0.070606	    0.070606
         3.950000	    0.068474	    0.068474
         4.000000	    0.066351	    0.066351
         4.050000	    0.064110	    0.064110
         4.100000	    0.061622	    0.061622
         4.150000	    0.058858	    0.058858
         4.200000	    0.055936	    0.055936
         4.250000	    0.052986	    0.052986
         4.300000	    0.050149	    0.050149
         4.350000	    0.047532	    0.047532
         4.400000	    0.045081	    0.045081
         4.450000	    0.042695	    0.042695
         4.500000	    0.040270	    0.040270
         4.550000	    0.037705	    0.037705
         4.600000	    0.035017	    0.035017
         4.650000	    0.032335	    0.032335
         4.700000	    0.029792	    0.029792
         4.750000	    0.027529	    0.027529
         4.800000	    0.025631	    0.025631
         4.850000	    0.024025	    0.024025
         4.900000	    0.022608	    0.022608
         4.950000	    0.021251	    0.021251
         5.000000	    0.019831	    0.019831
         5.050000	    0.018347	    0.018347
         5.100000	    0.016870	    0.016870
         5.150000	    0.015490	    0.015490
         5.200000	    0.014317	    0.014317
         5.250000	    0.013395	    0.013395
         5.300000	    0.012661	    0.012661
         5.350000	    0.012032	    0.012032
         5.400000	    0.011395	    0.011395
         5.450000	    0.010651	    0.010651
         5.500000	    0.009803	    0.009803
         5.550000	    0.008892	    0.008892
         5.600000	    0.007978	    0.007978
         5.650000	    0.007132	    0.007132
         5.700000	    0.006370	    0.006370
         5.750000	    0.005650	    0.005650
         5.800000	    0.004923	    0.004923
         5.850000	    0.004142	    0.004142
         5.900000	    0.003285	    0.003285
         5.950000	    0.002409	    0.002409
         6.000000	    0.001592	    0.001592
         6.050000	    0.000902	    0.000902
         6.100000	    0.000408	    0.000408
         6.150000	    0.000151	    0.000151
         6.200000	    0.000153	    0.000153
         6.250000	    0.000360	    0.000360
         6.300000	    0.000623	    0.000623
         6.350000	    0.000814	    0.000814
         6.400000	    0.000858	    0.000858
         6.450000	    0.000725	    0.000725
         6.500000	    0.000534	    0.000534
         6.550000	    0.000432	    0.000432
         6.600000	    0.000510	    0.000510
         6.650000	    0.000823	    0.000823
         6.700000	    0.001230	    0.001230
         6.750000	    0.001452	    0.001452
         6.800000	    0.001384	    0.001384
         6.850000	    0.001156	    0.001156
         6.900000	    0.000890	    0.000890
         6.950000	    0.000660	    0.000660
         7.000000	    0.000512	    0.000512
         7.050000	    0.000417	    0.000417
         7.100000	    0.000330	    0.000330
         7.150000	    0.000250	    0.000250
         7.200000	    0.000196	    0.000196
         7.250000	    0.000173	    0.000173
         7.300000	    0.000181	    0.000181
         7.350000	    0.000205	    0.000205
         7.400000	    0.000220	    0.000220
         7.450000	    0.000226	    0.000226
         7.500000	    0.000288	    0.000288
         7.550000	    0.000441	    0.000441
         7.600000	    0.000521	    0.000521
         7.650000	    0.000350	    0.000350
         7.700000	    0.000090	    0.000090
         7.750000	    0.000068	    0.000068
         7.800000	    0.000255	    0.000255
         7.850000	    0.000304	    0.000304
         7.900000	    0.000119	    0.000119
         7.950000	    0.000007	    0.000007
         8.000000	    0.000154	    0.000154
         8.050000	    0.000304	    0.000304
         8.100000	    0.000212	    0.000212
         8.150000	    0.000048	    0.000048
         8.200000	    0.000080	    0.000080
         8.250000	    0.000228	    0.000228
         8.300000	    0.000221	    0.000221
         8.350000	    0.000062	    0.000062
         8.400000	    0.000018	    0.000018
         8.450000	    0.000170	    0.000170
         8.500000	    0.000264	    0.000264
         8.550000	    0.000138	    0.000138
         8.600000	    0.000008	    0.000008
         8.650000	    0.000092	    0.000092
         8.700000	    0.000240	    0.000240
         8.750000	    0.000200	    0.000200
         8.800000	    0.000044	    0.000044
         8.850000	    0.000034	    0.000034
         8.900000	    0.000183	    0.000183
         8.950000	    0.000236	    0.000236
         9.000000	    0.000102	    0.000102
         9.050000	    0.000007	    0.000007
         9.100000	    0.000114	    0.000114
         9.150000	    0.000235	    0.000235
         9.200000	    0.000162	    0.000162
         9.250000	    0.000024	    0.000024
         9.300000	    0.000052	    0.000052
         9.350000	    0.000194	    0.000194
         9.400000	    0.000208	    0.000208
         9.450000	    0.000070	    0.000070
         9.500000	    0.000013	    0.000013
         9.550000	    0.000134	    0.000134
         9.600000	    0.000225	    0.000225
         9.650000	    0.000128	    0.000128
         9.700000	    0.000011	    0.000011
         9.750000	    0.000072	    0.000072
         9.800000	    0.000202	    0.000202
         9.850000	    0.000180	    0.000180
         9.900000	    0.000045	    0.000045
         9.950000	    0.000024	    0.000024
        10.000000	    0.000151	    0.000151
        10.050000	    0.000209	    0.000209
        10.100000	    0.000097	    0.000097
        10.150000	    0.000006	    0.000006
        10.200000	    0.000092	    0.000092
        10.250000	    0.000204	    0.000204
        10.300000	    0.000151	    0.000151
        10.350000	    0.000026	    0.000026
        10.400000	    0.000039	    0.000039
        10.450000	    0.000165	    0.000165
        10.500000	    0.000190	    0.000190
        10.550000	    0.000070	    0.000070
        10.600000	    0.000009	    0.000009
        10.650000	    0.000111	    0.000111
        10.700000	    0.000200	    0.000200
        10.750000	    0.000123	    0.000123
        10.800000	    0.000013	    0.000013
        10.850000	    0.000057	    0.000057
        10.900000	    0.000176	    0.000176
        10.950000	    0.000168	    0.000168
        11.000000	    0.000047	    0.000047
        11.050000	    0.000017	    0.000017
        11.100000	    0.000129	    0.000129
        11.150000	    0.000191	    0.000191
        11.200000	    0.000096	    0.000096
        11.250000	    0.000006	    0.000006
        11.300000	    0.000075	    0.000075
        11.350000	    0.000181	    0.000181
        11.400000	    0.000144	    0.000144
        11.450000	    0.000028	    0.000028
        11.500000	    0.000030	    0.000030
        11.550000	    0.000143	    0.000143
        11.600000	    0.000177	    0.000177
        11.650000	    0.000071	    0.000071
        11.700000	    0.000006	    0.000006
        11.750000	    0.000093	    0.000093
        11.800000	    0.000182	    0.000182
        11.850000	    0.000119	    0.000119
        11.900000	    0.000015	    0.000015
        11.950000	    0.000045	    0.000045
        12.000000	    0.000155	    0.000155
        12.050000	    0.000159	    0.000159
        12.100000	    0.000049	    0.000049
        12.150000	    0.000012	    0.000012
        12.200000	    0.000110	    0.000110
        12.250000	    0.000176	    0.000176
        12.300000	    0.000095	    0.000095
        12.350000	    0.000007	    0.000007
        12.400000	    0.000062	    0.000062
        12.450000	    0.000163	    0.000163
        12.500000	    0.000138	    0.000138
        12.550000	    0.000031	    0.000031
        12.600000	    0.000022	    0.000022
        12.650000	    0.000126	    0.000126
        12.700000	    0.000166	    0.000166
        12.750000	    0.000073	    0.000073
        12.800000	    0.000004	    0.000004
        12.850000	    0.000079	    0.000079
        12.900000	    0.000166	    0.000166
        12.950000	    0.000117	    0.000117
        13.000000	    0.000017	    0.000017
        13.050000	    0.000035	    0.000035
        13.100000	    0.000138	    0.000138
        13.150000	    0.000151	    0.000151
        13.200000	    0.000052	    0.000052
        13.250000	    0.000008	    0.000008
        13.300000	    0.000095	    0.000095
        13.350000	    0.000164	    0.000164
        13.400000	    0.000095	    0.000095
        13.450000	    0.000008	    0.000008
        13.500000	    0.000050	    0.000050
        13.550000	    0.000147	    0.000147
        13.600000	    0.000134	    0.000134
        13.650000	    0.000034	    0.000034
        13.700000	    0.000016	    0.000016
        13.750000	    0.000110	    0.000110
        13.800000	    0.000157	    0.000157
        13.850000	    0.000074	    0.000074
        13.900000	    0.000004	    0.000004
        13.950000	    0.000067	    0.000067
        14.000000	    0.000153	    0.000153
        14.050000	    0.000115	    0.000115
        14.100000	    0.000020	    0.000020
        14.150000	    0.000028	    0.000028
        14.200000	    0.000124	    0.000124
        14.250000	    0.000145	    0.000145
        14.300000	    0.000055	    0.000055
        14.350000	    0.000005	    0.000005
        14.400000	    0.000082	    0.000082
        14.450000	    0.000153	    0.000153
        14.500000	    0.000096	    0.000096
        14.550000	    0.000010	    0.000010
        14.600000	    0.000041	    0.000041
        14.650000	    0.000134	    0.000134
        14.700000	    0.000131	    0.000131
        14.750000	    0.000038	    0.000038
        14.800000	    0.000012	    0.000012
        14.850000	    0.000098	    0.000098
        14.900000	    0.000149	    0.000149
        14.950000	    0.000076	    0.000076
        15.000000	    0.000004	    0.000004

