Diffraction MTF

File : C:\Users\Trisha\Documents\Zemax\SAMPLES\Navarro_Trisha_scene2retina.ZMX
Title: 
Date : 10/15/2018


Data for 0.6328 Âµm.
Surface: Image (RETINA)
Angular Frequency units are cycles per mr.
Modulation is relative to 1.0.

Field: 0.00, 0.00 (deg)
Spatial Frequency	  Tangential	    Sagittal
         0.000000	    1.000000	    1.000000
         0.002000	    0.999639	    0.999639
         0.004000	    0.999274	    0.999274
         0.006000	    0.998902	    0.998902
         0.008000	    0.998523	    0.998523
         0.010000	    0.998139	    0.998139
         0.012000	    0.997748	    0.997748
         0.014000	    0.997352	    0.997352
         0.016000	    0.996949	    0.996949
         0.018000	    0.996541	    0.996541
         0.020000	    0.996127	    0.996127
         0.022000	    0.995707	    0.995707
         0.024000	    0.995281	    0.995281
         0.026000	    0.994850	    0.994850
         0.028000	    0.994412	    0.994412
         0.030000	    0.993970	    0.993970
         0.032000	    0.993521	    0.993521
         0.034000	    0.993067	    0.993067
         0.036000	    0.992608	    0.992608
         0.038000	    0.992143	    0.992143
         0.040000	    0.991673	    0.991673
         0.042000	    0.991198	    0.991198
         0.044000	    0.990717	    0.990717
         0.046000	    0.990231	    0.990231
         0.048000	    0.989740	    0.989740
         0.050000	    0.989243	    0.989243
         0.052000	    0.988742	    0.988742
         0.054000	    0.988235	    0.988235
         0.056000	    0.987723	    0.987723
         0.058000	    0.987207	    0.987207
         0.060000	    0.986685	    0.986685
         0.062000	    0.986159	    0.986159
         0.064000	    0.985628	    0.985628
         0.066000	    0.985092	    0.985092
         0.068000	    0.984551	    0.984551
         0.070000	    0.984005	    0.984005
         0.072000	    0.983455	    0.983455
         0.074000	    0.982900	    0.982900
         0.076000	    0.982340	    0.982340
         0.078000	    0.981776	    0.981776
         0.080000	    0.981207	    0.981207
         0.082000	    0.980634	    0.980634
         0.084000	    0.980057	    0.980057
         0.086000	    0.979475	    0.979475
         0.088000	    0.978888	    0.978888
         0.090000	    0.978298	    0.978298
         0.092000	    0.977703	    0.977703
         0.094000	    0.977104	    0.977104
         0.096000	    0.976500	    0.976500
         0.098000	    0.975893	    0.975893
         0.100000	    0.975281	    0.975281
         0.102000	    0.974665	    0.974665
         0.104000	    0.974045	    0.974045
         0.106000	    0.973421	    0.973421
         0.108000	    0.972793	    0.972793
         0.110000	    0.972162	    0.972162
         0.112000	    0.971526	    0.971526
         0.114000	    0.970886	    0.970886
         0.116000	    0.970243	    0.970243
         0.118000	    0.969595	    0.969595
         0.120000	    0.968944	    0.968944
         0.122000	    0.968290	    0.968290
         0.124000	    0.967631	    0.967631
         0.126000	    0.966969	    0.966969
         0.128000	    0.966303	    0.966303
         0.130000	    0.965634	    0.965634
         0.132000	    0.964961	    0.964961
         0.134000	    0.964284	    0.964284
         0.136000	    0.963604	    0.963604
         0.138000	    0.962921	    0.962921
         0.140000	    0.962234	    0.962234
         0.142000	    0.961544	    0.961544
         0.144000	    0.960850	    0.960850
         0.146000	    0.960153	    0.960153
         0.148000	    0.959453	    0.959453
         0.150000	    0.958749	    0.958749
         0.152000	    0.958042	    0.958042
         0.154000	    0.957332	    0.957332
         0.156000	    0.956619	    0.956619
         0.158000	    0.955903	    0.955903
         0.160000	    0.955183	    0.955183
         0.162000	    0.954460	    0.954460
         0.164000	    0.953735	    0.953735
         0.166000	    0.953006	    0.953006
         0.168000	    0.952274	    0.952274
         0.170000	    0.951540	    0.951540
         0.172000	    0.950802	    0.950802
         0.174000	    0.950062	    0.950062
         0.176000	    0.949318	    0.949318
         0.178000	    0.948572	    0.948572
         0.180000	    0.947823	    0.947823
         0.182000	    0.947071	    0.947071
         0.184000	    0.946316	    0.946316
         0.186000	    0.945559	    0.945559
         0.188000	    0.944798	    0.944798
         0.190000	    0.944036	    0.944036
         0.192000	    0.943270	    0.943270
         0.194000	    0.942502	    0.942502
         0.196000	    0.941731	    0.941731
         0.198000	    0.940958	    0.940958
         0.200000	    0.940182	    0.940182
         0.202000	    0.939403	    0.939403
         0.204000	    0.938622	    0.938622
         0.206000	    0.937838	    0.937838
         0.208000	    0.937052	    0.937052
         0.210000	    0.936264	    0.936264
         0.212000	    0.935473	    0.935473
         0.214000	    0.934680	    0.934680
         0.216000	    0.933884	    0.933884
         0.218000	    0.933086	    0.933086
         0.220000	    0.932286	    0.932286
         0.222000	    0.931483	    0.931483
         0.224000	    0.930678	    0.930678
         0.226000	    0.929871	    0.929871
         0.228000	    0.929062	    0.929062
         0.230000	    0.928250	    0.928250
         0.232000	    0.927436	    0.927436
         0.234000	    0.926620	    0.926620
         0.236000	    0.925802	    0.925802
         0.238000	    0.924982	    0.924982
         0.240000	    0.924159	    0.924159
         0.242000	    0.923335	    0.923335
         0.244000	    0.922508	    0.922508
         0.246000	    0.921680	    0.921680
         0.248000	    0.920849	    0.920849
         0.250000	    0.920017	    0.920017
         0.252000	    0.919182	    0.919182
         0.254000	    0.918345	    0.918345
         0.256000	    0.917507	    0.917507
         0.258000	    0.916667	    0.916667
         0.260000	    0.915824	    0.915824
         0.262000	    0.914980	    0.914980
         0.264000	    0.914134	    0.914134
         0.266000	    0.913286	    0.913286
         0.268000	    0.912437	    0.912437
         0.270000	    0.911586	    0.911586
         0.272000	    0.910733	    0.910733
         0.274000	    0.909878	    0.909878
         0.276000	    0.909022	    0.909022
         0.278000	    0.908163	    0.908163
         0.280000	    0.907303	    0.907303
         0.282000	    0.906442	    0.906442
         0.284000	    0.905578	    0.905578
         0.286000	    0.904713	    0.904713
         0.288000	    0.903847	    0.903847
         0.290000	    0.902979	    0.902979
         0.292000	    0.902109	    0.902109
         0.294000	    0.901237	    0.901237
         0.296000	    0.900364	    0.900364
         0.298000	    0.899489	    0.899489
         0.300000	    0.898613	    0.898613
         0.302000	    0.897735	    0.897735
         0.304000	    0.896856	    0.896856
         0.306000	    0.895975	    0.895975
         0.308000	    0.895093	    0.895093
         0.310000	    0.894209	    0.894209
         0.312000	    0.893324	    0.893324
         0.314000	    0.892438	    0.892438
         0.316000	    0.891550	    0.891550
         0.318000	    0.890660	    0.890660
         0.320000	    0.889769	    0.889769
         0.322000	    0.888877	    0.888877
         0.324000	    0.887984	    0.887984
         0.326000	    0.887089	    0.887089
         0.328000	    0.886192	    0.886192
         0.330000	    0.885295	    0.885295
         0.332000	    0.884396	    0.884396
         0.334000	    0.883496	    0.883496
         0.336000	    0.882594	    0.882594
         0.338000	    0.881691	    0.881691
         0.340000	    0.880787	    0.880787
         0.342000	    0.879882	    0.879882
         0.344000	    0.878975	    0.878975
         0.346000	    0.878068	    0.878068
         0.348000	    0.877159	    0.877159
         0.350000	    0.876249	    0.876249
         0.352000	    0.875337	    0.875337
         0.354000	    0.874425	    0.874425
         0.356000	    0.873511	    0.873511
         0.358000	    0.872597	    0.872597
         0.360000	    0.871681	    0.871681
         0.362000	    0.870764	    0.870764
         0.364000	    0.869846	    0.869846
         0.366000	    0.868926	    0.868926
         0.368000	    0.868006	    0.868006
         0.370000	    0.867085	    0.867085
         0.372000	    0.866162	    0.866162
         0.374000	    0.865239	    0.865239
         0.376000	    0.864314	    0.864314
         0.378000	    0.863389	    0.863389
         0.380000	    0.862462	    0.862462
         0.382000	    0.861535	    0.861535
         0.384000	    0.860606	    0.860606
         0.386000	    0.859677	    0.859677
         0.388000	    0.858746	    0.858746
         0.390000	    0.857815	    0.857815
         0.392000	    0.856882	    0.856882
         0.394000	    0.855949	    0.855949
         0.396000	    0.855015	    0.855015
         0.398000	    0.854079	    0.854079
         0.400000	    0.853143	    0.853143
         0.402000	    0.852206	    0.852206
         0.404000	    0.851268	    0.851268
         0.406000	    0.850330	    0.850330
         0.408000	    0.849390	    0.849390
         0.410000	    0.848449	    0.848449
         0.412000	    0.847508	    0.847508
         0.414000	    0.846566	    0.846566
         0.416000	    0.845624	    0.845624
         0.418000	    0.844680	    0.844680
         0.420000	    0.843736	    0.843736
         0.422000	    0.842791	    0.842791
         0.424000	    0.841845	    0.841845
         0.426000	    0.840898	    0.840898
         0.428000	    0.839951	    0.839951
         0.430000	    0.839003	    0.839003
         0.432000	    0.838054	    0.838054
         0.434000	    0.837104	    0.837104
         0.436000	    0.836154	    0.836154
         0.438000	    0.835202	    0.835202
         0.440000	    0.834251	    0.834251
         0.442000	    0.833298	    0.833298
         0.444000	    0.832345	    0.832345
         0.446000	    0.831391	    0.831391
         0.448000	    0.830436	    0.830436
         0.450000	    0.829480	    0.829480
         0.452000	    0.828524	    0.828524
         0.454000	    0.827568	    0.827568
         0.456000	    0.826610	    0.826610
         0.458000	    0.825652	    0.825652
         0.460000	    0.824694	    0.824694
         0.462000	    0.823734	    0.823734
         0.464000	    0.822774	    0.822774
         0.466000	    0.821814	    0.821814
         0.468000	    0.820853	    0.820853
         0.470000	    0.819891	    0.819891
         0.472000	    0.818929	    0.818929
         0.474000	    0.817966	    0.817966
         0.476000	    0.817002	    0.817002
         0.478000	    0.816038	    0.816038
         0.480000	    0.815073	    0.815073
         0.482000	    0.814108	    0.814108
         0.484000	    0.813142	    0.813142
         0.486000	    0.812176	    0.812176
         0.488000	    0.811209	    0.811209
         0.490000	    0.810242	    0.810242
         0.492000	    0.809274	    0.809274
         0.494000	    0.808306	    0.808306
         0.496000	    0.807337	    0.807337
         0.498000	    0.806367	    0.806367
         0.500000	    0.805397	    0.805397
         0.502000	    0.804427	    0.804427
         0.504000	    0.803456	    0.803456
         0.506000	    0.802485	    0.802485
         0.508000	    0.801513	    0.801513
         0.510000	    0.800541	    0.800541
         0.512000	    0.799568	    0.799568
         0.514000	    0.798595	    0.798595
         0.516000	    0.797621	    0.797621
         0.518000	    0.796647	    0.796647
         0.520000	    0.795673	    0.795673
         0.522000	    0.794698	    0.794698
         0.524000	    0.793723	    0.793723
         0.526000	    0.792748	    0.792748
         0.528000	    0.791772	    0.791772
         0.530000	    0.790796	    0.790796
         0.532000	    0.789819	    0.789819
         0.534000	    0.788842	    0.788842
         0.536000	    0.787865	    0.787865
         0.538000	    0.786887	    0.786887
         0.540000	    0.785909	    0.785909
         0.542000	    0.784930	    0.784930
         0.544000	    0.783952	    0.783952
         0.546000	    0.782972	    0.782972
         0.548000	    0.781993	    0.781993
         0.550000	    0.781013	    0.781013
         0.552000	    0.780033	    0.780033
         0.554000	    0.779052	    0.779052
         0.556000	    0.778071	    0.778071
         0.558000	    0.777090	    0.777090
         0.560000	    0.776109	    0.776109
         0.562000	    0.775127	    0.775127
         0.564000	    0.774145	    0.774145
         0.566000	    0.773162	    0.773162
         0.568000	    0.772180	    0.772180
         0.570000	    0.771197	    0.771197
         0.572000	    0.770213	    0.770213
         0.574000	    0.769230	    0.769230
         0.576000	    0.768246	    0.768246
         0.578000	    0.767262	    0.767262
         0.580000	    0.766278	    0.766278
         0.582000	    0.765293	    0.765293
         0.584000	    0.764308	    0.764308
         0.586000	    0.763323	    0.763323
         0.588000	    0.762338	    0.762338
         0.590000	    0.761352	    0.761352
         0.592000	    0.760367	    0.760367
         0.594000	    0.759381	    0.759381
         0.596000	    0.758394	    0.758394
         0.598000	    0.757408	    0.757408
         0.600000	    0.756421	    0.756421
         0.602000	    0.755434	    0.755434
         0.604000	    0.754447	    0.754447
         0.606000	    0.753460	    0.753460
         0.608000	    0.752473	    0.752473
         0.610000	    0.751485	    0.751485
         0.612000	    0.750498	    0.750498
         0.614000	    0.749510	    0.749510
         0.616000	    0.748523	    0.748523
         0.618000	    0.747535	    0.747535
         0.620000	    0.746547	    0.746547
         0.622000	    0.745558	    0.745558
         0.624000	    0.744570	    0.744570
         0.626000	    0.743581	    0.743581
         0.628000	    0.742593	    0.742593
         0.630000	    0.741604	    0.741604
         0.632000	    0.740615	    0.740615
         0.634000	    0.739626	    0.739626
         0.636000	    0.738637	    0.738637
         0.638000	    0.737647	    0.737647
         0.640000	    0.736658	    0.736658
         0.642000	    0.735668	    0.735668
         0.644000	    0.734679	    0.734679
         0.646000	    0.733689	    0.733689
         0.648000	    0.732699	    0.732699
         0.650000	    0.731709	    0.731709
         0.652000	    0.730719	    0.730719
         0.654000	    0.729729	    0.729729
         0.656000	    0.728739	    0.728739
         0.658000	    0.727749	    0.727749
         0.660000	    0.726758	    0.726758
         0.662000	    0.725768	    0.725768
         0.664000	    0.724777	    0.724777
         0.666000	    0.723787	    0.723787
         0.668000	    0.722796	    0.722796
         0.670000	    0.721806	    0.721806
         0.672000	    0.720815	    0.720815
         0.674000	    0.719825	    0.719825
         0.676000	    0.718834	    0.718834
         0.678000	    0.717843	    0.717843
         0.680000	    0.716852	    0.716852
         0.682000	    0.715862	    0.715862
         0.684000	    0.714871	    0.714871
         0.686000	    0.713880	    0.713880
         0.688000	    0.712889	    0.712889
         0.690000	    0.711899	    0.711899
         0.692000	    0.710908	    0.710908
         0.694000	    0.709918	    0.709918
         0.696000	    0.708927	    0.708927
         0.698000	    0.707937	    0.707937
         0.700000	    0.706947	    0.706947
         0.702000	    0.705956	    0.705956
         0.704000	    0.704966	    0.704966
         0.706000	    0.703975	    0.703975
         0.708000	    0.702985	    0.702985
         0.710000	    0.701995	    0.701995
         0.712000	    0.701004	    0.701004
         0.714000	    0.700014	    0.700014
         0.716000	    0.699024	    0.699024
         0.718000	    0.698034	    0.698034
         0.720000	    0.697044	    0.697044
         0.722000	    0.696054	    0.696054
         0.724000	    0.695064	    0.695064
         0.726000	    0.694074	    0.694074
         0.728000	    0.693084	    0.693084
         0.730000	    0.692095	    0.692095
         0.732000	    0.691105	    0.691105
         0.734000	    0.690115	    0.690115
         0.736000	    0.689126	    0.689126
         0.738000	    0.688137	    0.688137
         0.740000	    0.687147	    0.687147
         0.742000	    0.686158	    0.686158
         0.744000	    0.685169	    0.685169
         0.746000	    0.684180	    0.684180
         0.748000	    0.683191	    0.683191
         0.750000	    0.682202	    0.682202
         0.752000	    0.681214	    0.681214
         0.754000	    0.680225	    0.680225
         0.756000	    0.679237	    0.679237
         0.758000	    0.678249	    0.678249
         0.760000	    0.677261	    0.677261
         0.762000	    0.676273	    0.676273
         0.764000	    0.675286	    0.675286
         0.766000	    0.674299	    0.674299
         0.768000	    0.673311	    0.673311
         0.770000	    0.672324	    0.672324
         0.772000	    0.671337	    0.671337
         0.774000	    0.670351	    0.670351
         0.776000	    0.669364	    0.669364
         0.778000	    0.668378	    0.668378
         0.780000	    0.667391	    0.667391
         0.782000	    0.666405	    0.666405
         0.784000	    0.665420	    0.665420
         0.786000	    0.664434	    0.664434
         0.788000	    0.663448	    0.663448
         0.790000	    0.662463	    0.662463
         0.792000	    0.661478	    0.661478
         0.794000	    0.660493	    0.660493
         0.796000	    0.659508	    0.659508
         0.798000	    0.658524	    0.658524
         0.800000	    0.657539	    0.657539
         0.802000	    0.656555	    0.656555
         0.804000	    0.655571	    0.655571
         0.806000	    0.654588	    0.654588
         0.808000	    0.653604	    0.653604
         0.810000	    0.652621	    0.652621
         0.812000	    0.651638	    0.651638
         0.814000	    0.650655	    0.650655
         0.816000	    0.649673	    0.649673
         0.818000	    0.648690	    0.648690
         0.820000	    0.647708	    0.647708
         0.822000	    0.646727	    0.646727
         0.824000	    0.645745	    0.645745
         0.826000	    0.644764	    0.644764
         0.828000	    0.643784	    0.643784
         0.830000	    0.642803	    0.642803
         0.832000	    0.641823	    0.641823
         0.834000	    0.640843	    0.640843
         0.836000	    0.639863	    0.639863
         0.838000	    0.638884	    0.638884
         0.840000	    0.637905	    0.637905
         0.842000	    0.636926	    0.636926
         0.844000	    0.635948	    0.635948
         0.846000	    0.634969	    0.634969
         0.848000	    0.633991	    0.633991
         0.850000	    0.633014	    0.633014
         0.852000	    0.632036	    0.632036
         0.854000	    0.631059	    0.631059
         0.856000	    0.630083	    0.630083
         0.858000	    0.629106	    0.629106
         0.860000	    0.628130	    0.628130
         0.862000	    0.627154	    0.627154
         0.864000	    0.626179	    0.626179
         0.866000	    0.625204	    0.625204
         0.868000	    0.624229	    0.624229
         0.870000	    0.623254	    0.623254
         0.872000	    0.622280	    0.622280
         0.874000	    0.621306	    0.621306
         0.876000	    0.620332	    0.620332
         0.878000	    0.619360	    0.619360
         0.880000	    0.618387	    0.618387
         0.882000	    0.617415	    0.617415
         0.884000	    0.616443	    0.616443
         0.886000	    0.615472	    0.615472
         0.888000	    0.614501	    0.614501
         0.890000	    0.613530	    0.613530
         0.892000	    0.612560	    0.612560
         0.894000	    0.611590	    0.611590
         0.896000	    0.610620	    0.610620
         0.898000	    0.609651	    0.609651
         0.900000	    0.608682	    0.608682
         0.902000	    0.607713	    0.607713
         0.904000	    0.606745	    0.606745
         0.906000	    0.605778	    0.605778
         0.908000	    0.604810	    0.604810
         0.910000	    0.603843	    0.603843
         0.912000	    0.602877	    0.602877
         0.914000	    0.601911	    0.601911
         0.916000	    0.600945	    0.600945
         0.918000	    0.599980	    0.599980
         0.920000	    0.599015	    0.599015
         0.922000	    0.598050	    0.598050
         0.924000	    0.597086	    0.597086
         0.926000	    0.596122	    0.596122
         0.928000	    0.595159	    0.595159
         0.930000	    0.594196	    0.594196
         0.932000	    0.593234	    0.593234
         0.934000	    0.592272	    0.592272
         0.936000	    0.591311	    0.591311
         0.938000	    0.590350	    0.590350
         0.940000	    0.589390	    0.589390
         0.942000	    0.588430	    0.588430
         0.944000	    0.587471	    0.587471
         0.946000	    0.586512	    0.586512
         0.948000	    0.585553	    0.585553
         0.950000	    0.584595	    0.584595
         0.952000	    0.583638	    0.583638
         0.954000	    0.582680	    0.582680
         0.956000	    0.581724	    0.581724
         0.958000	    0.580768	    0.580768
         0.960000	    0.579812	    0.579812
         0.962000	    0.578857	    0.578857
         0.964000	    0.577902	    0.577902
         0.966000	    0.576948	    0.576948
         0.968000	    0.575994	    0.575994
         0.970000	    0.575040	    0.575040
         0.972000	    0.574088	    0.574088
         0.974000	    0.573135	    0.573135
         0.976000	    0.572183	    0.572183
         0.978000	    0.571232	    0.571232
         0.980000	    0.570281	    0.570281
         0.982000	    0.569331	    0.569331
         0.984000	    0.568381	    0.568381
         0.986000	    0.567432	    0.567432
         0.988000	    0.566484	    0.566484
         0.990000	    0.565536	    0.565536
         0.992000	    0.564588	    0.564588
         0.994000	    0.563642	    0.563642
         0.996000	    0.562695	    0.562695
         0.998000	    0.561749	    0.561749
         1.000000	    0.560804	    0.560804
         1.002000	    0.559859	    0.559859
         1.004000	    0.558915	    0.558915
         1.006000	    0.557971	    0.557971
         1.008000	    0.557028	    0.557028
         1.010000	    0.556085	    0.556085
         1.012000	    0.555143	    0.555143
         1.014000	    0.554202	    0.554202
         1.016000	    0.553261	    0.553261
         1.018000	    0.552320	    0.552320
         1.020000	    0.551380	    0.551380
         1.022000	    0.550441	    0.550441
         1.024000	    0.549502	    0.549502
         1.026000	    0.548564	    0.548564
         1.028000	    0.547627	    0.547627
         1.030000	    0.546690	    0.546690
         1.032000	    0.545753	    0.545753
         1.034000	    0.544818	    0.544818
         1.036000	    0.543883	    0.543883
         1.038000	    0.542948	    0.542948
         1.040000	    0.542015	    0.542015
         1.042000	    0.541081	    0.541081
         1.044000	    0.540149	    0.540149
         1.046000	    0.539217	    0.539217
         1.048000	    0.538285	    0.538285
         1.050000	    0.537355	    0.537355
         1.052000	    0.536424	    0.536424
         1.054000	    0.535495	    0.535495
         1.056000	    0.534566	    0.534566
         1.058000	    0.533637	    0.533637
         1.060000	    0.532710	    0.532710
         1.062000	    0.531782	    0.531782
         1.064000	    0.530856	    0.530856
         1.066000	    0.529930	    0.529930
         1.068000	    0.529005	    0.529005
         1.070000	    0.528080	    0.528080
         1.072000	    0.527156	    0.527156
         1.074000	    0.526233	    0.526233
         1.076000	    0.525310	    0.525310
         1.078000	    0.524388	    0.524388
         1.080000	    0.523466	    0.523466
         1.082000	    0.522546	    0.522546
         1.084000	    0.521626	    0.521626
         1.086000	    0.520706	    0.520706
         1.088000	    0.519788	    0.519788
         1.090000	    0.518870	    0.518870
         1.092000	    0.517953	    0.517953
         1.094000	    0.517036	    0.517036
         1.096000	    0.516120	    0.516120
         1.098000	    0.515205	    0.515205
         1.100000	    0.514290	    0.514290
         1.102000	    0.513376	    0.513376
         1.104000	    0.512463	    0.512463
         1.106000	    0.511550	    0.511550
         1.108000	    0.510638	    0.510638
         1.110000	    0.509727	    0.509727
         1.112000	    0.508817	    0.508817
         1.114000	    0.507907	    0.507907
         1.116000	    0.506998	    0.506998
         1.118000	    0.506089	    0.506089
         1.120000	    0.505181	    0.505181
         1.122000	    0.504274	    0.504274
         1.124000	    0.503368	    0.503368
         1.126000	    0.502462	    0.502462
         1.128000	    0.501558	    0.501558
         1.130000	    0.500654	    0.500654
         1.132000	    0.499750	    0.499750
         1.134000	    0.498848	    0.498848
         1.136000	    0.497946	    0.497946
         1.138000	    0.497044	    0.497044
         1.140000	    0.496144	    0.496144
         1.142000	    0.495244	    0.495244
         1.144000	    0.494345	    0.494345
         1.146000	    0.493447	    0.493447
         1.148000	    0.492549	    0.492549
         1.150000	    0.491652	    0.491652
         1.152000	    0.490756	    0.490756
         1.154000	    0.489861	    0.489861
         1.156000	    0.488966	    0.488966
         1.158000	    0.488072	    0.488072
         1.160000	    0.487179	    0.487179
         1.162000	    0.486286	    0.486286
         1.164000	    0.485395	    0.485395
         1.166000	    0.484504	    0.484504
         1.168000	    0.483613	    0.483613
         1.170000	    0.482724	    0.482724
         1.172000	    0.481835	    0.481835
         1.174000	    0.480947	    0.480947
         1.176000	    0.480060	    0.480060
         1.178000	    0.479174	    0.479174
         1.180000	    0.478289	    0.478289
         1.182000	    0.477404	    0.477404
         1.184000	    0.476520	    0.476520
         1.186000	    0.475637	    0.475637
         1.188000	    0.474755	    0.474755
         1.190000	    0.473873	    0.473873
         1.192000	    0.472992	    0.472992
         1.194000	    0.472112	    0.472112
         1.196000	    0.471233	    0.471233
         1.198000	    0.470354	    0.470354
         1.200000	    0.469477	    0.469477
         1.202000	    0.468600	    0.468600
         1.204000	    0.467724	    0.467724
         1.206000	    0.466848	    0.466848
         1.208000	    0.465974	    0.465974
         1.210000	    0.465100	    0.465100
         1.212000	    0.464228	    0.464228
         1.214000	    0.463356	    0.463356
         1.216000	    0.462485	    0.462485
         1.218000	    0.461614	    0.461614
         1.220000	    0.460745	    0.460745
         1.222000	    0.459876	    0.459876
         1.224000	    0.459008	    0.459008
         1.226000	    0.458141	    0.458141
         1.228000	    0.457275	    0.457275
         1.230000	    0.456409	    0.456409
         1.232000	    0.455545	    0.455545
         1.234000	    0.454681	    0.454681
         1.236000	    0.453818	    0.453818
         1.238000	    0.452956	    0.452956
         1.240000	    0.452094	    0.452094
         1.242000	    0.451234	    0.451234
         1.244000	    0.450374	    0.450374
         1.246000	    0.449515	    0.449515
         1.248000	    0.448657	    0.448657
         1.250000	    0.447800	    0.447800
         1.252000	    0.446943	    0.446943
         1.254000	    0.446088	    0.446088
         1.256000	    0.445234	    0.445234
         1.258000	    0.444380	    0.444380
         1.260000	    0.443527	    0.443527
         1.262000	    0.442675	    0.442675
         1.264000	    0.441824	    0.441824
         1.266000	    0.440974	    0.440974
         1.268000	    0.440125	    0.440125
         1.270000	    0.439276	    0.439276
         1.272000	    0.438428	    0.438428
         1.274000	    0.437581	    0.437581
         1.276000	    0.436735	    0.436735
         1.278000	    0.435890	    0.435890
         1.280000	    0.435046	    0.435046
         1.282000	    0.434202	    0.434202
         1.284000	    0.433360	    0.433360
         1.286000	    0.432518	    0.432518
         1.288000	    0.431677	    0.431677
         1.290000	    0.430837	    0.430837
         1.292000	    0.429998	    0.429998
         1.294000	    0.429160	    0.429160
         1.296000	    0.428323	    0.428323
         1.298000	    0.427487	    0.427487
         1.300000	    0.426651	    0.426651
         1.302000	    0.425817	    0.425817
         1.304000	    0.424983	    0.424983
         1.306000	    0.424151	    0.424151
         1.308000	    0.423319	    0.423319
         1.310000	    0.422488	    0.422488
         1.312000	    0.421658	    0.421658
         1.314000	    0.420829	    0.420829
         1.316000	    0.420000	    0.420000
         1.318000	    0.419173	    0.419173
         1.320000	    0.418346	    0.418346
         1.322000	    0.417521	    0.417521
         1.324000	    0.416696	    0.416696
         1.326000	    0.415872	    0.415872
         1.328000	    0.415049	    0.415049
         1.330000	    0.414227	    0.414227
         1.332000	    0.413407	    0.413407
         1.334000	    0.412587	    0.412587
         1.336000	    0.411768	    0.411768
         1.338000	    0.410949	    0.410949
         1.340000	    0.410132	    0.410132
         1.342000	    0.409316	    0.409316
         1.344000	    0.408501	    0.408501
         1.346000	    0.407686	    0.407686
         1.348000	    0.406872	    0.406872
         1.350000	    0.406060	    0.406060
         1.352000	    0.405248	    0.405248
         1.354000	    0.404437	    0.404437
         1.356000	    0.403627	    0.403627
         1.358000	    0.402818	    0.402818
         1.360000	    0.402010	    0.402010
         1.362000	    0.401203	    0.401203
         1.364000	    0.400397	    0.400397
         1.366000	    0.399592	    0.399592
         1.368000	    0.398788	    0.398788
         1.370000	    0.397984	    0.397984
         1.372000	    0.397182	    0.397182
         1.374000	    0.396381	    0.396381
         1.376000	    0.395580	    0.395580
         1.378000	    0.394781	    0.394781
         1.380000	    0.393982	    0.393982
         1.382000	    0.393185	    0.393185
         1.384000	    0.392388	    0.392388
         1.386000	    0.391592	    0.391592
         1.388000	    0.390798	    0.390798
         1.390000	    0.390004	    0.390004
         1.392000	    0.389211	    0.389211
         1.394000	    0.388419	    0.388419
         1.396000	    0.387628	    0.387628
         1.398000	    0.386838	    0.386838
         1.400000	    0.386049	    0.386049
         1.402000	    0.385261	    0.385261
         1.404000	    0.384474	    0.384474
         1.406000	    0.383688	    0.383688
         1.408000	    0.382903	    0.382903
         1.410000	    0.382119	    0.382119
         1.412000	    0.381336	    0.381336
         1.414000	    0.380554	    0.380554
         1.416000	    0.379773	    0.379773
         1.418000	    0.378993	    0.378993
         1.420000	    0.378213	    0.378213
         1.422000	    0.377435	    0.377435
         1.424000	    0.376658	    0.376658
         1.426000	    0.375881	    0.375881
         1.428000	    0.375106	    0.375106
         1.430000	    0.374331	    0.374331
         1.432000	    0.373558	    0.373558
         1.434000	    0.372786	    0.372786
         1.436000	    0.372014	    0.372014
         1.438000	    0.371244	    0.371244
         1.440000	    0.370475	    0.370475
         1.442000	    0.369706	    0.369706
         1.444000	    0.368939	    0.368939
         1.446000	    0.368173	    0.368173
         1.448000	    0.367407	    0.367407
         1.450000	    0.366643	    0.366643
         1.452000	    0.365879	    0.365879
         1.454000	    0.365117	    0.365117
         1.456000	    0.364355	    0.364355
         1.458000	    0.363595	    0.363595
         1.460000	    0.362835	    0.362835
         1.462000	    0.362077	    0.362077
         1.464000	    0.361319	    0.361319
         1.466000	    0.360563	    0.360563
         1.468000	    0.359807	    0.359807
         1.470000	    0.359053	    0.359053
         1.472000	    0.358299	    0.358299
         1.474000	    0.357547	    0.357547
         1.476000	    0.356796	    0.356796
         1.478000	    0.356045	    0.356045
         1.480000	    0.355296	    0.355296
         1.482000	    0.354548	    0.354548
         1.484000	    0.353800	    0.353800
         1.486000	    0.353054	    0.353054
         1.488000	    0.352309	    0.352309
         1.490000	    0.351564	    0.351564
         1.492000	    0.350821	    0.350821
         1.494000	    0.350079	    0.350079
         1.496000	    0.349337	    0.349337
         1.498000	    0.348597	    0.348597
         1.500000	    0.347857	    0.347857
         1.502000	    0.347119	    0.347119
         1.504000	    0.346382	    0.346382
         1.506000	    0.345646	    0.345646
         1.508000	    0.344911	    0.344911
         1.510000	    0.344177	    0.344177
         1.512000	    0.343444	    0.343444
         1.514000	    0.342712	    0.342712
         1.516000	    0.341981	    0.341981
         1.518000	    0.341251	    0.341251
         1.520000	    0.340522	    0.340522
         1.522000	    0.339794	    0.339794
         1.524000	    0.339067	    0.339067
         1.526000	    0.338341	    0.338341
         1.528000	    0.337616	    0.337616
         1.530000	    0.336892	    0.336892
         1.532000	    0.336169	    0.336169
         1.534000	    0.335448	    0.335448
         1.536000	    0.334727	    0.334727
         1.538000	    0.334008	    0.334008
         1.540000	    0.333289	    0.333289
         1.542000	    0.332572	    0.332572
         1.544000	    0.331855	    0.331855
         1.546000	    0.331140	    0.331140
         1.548000	    0.330426	    0.330426
         1.550000	    0.329712	    0.329712
         1.552000	    0.329000	    0.329000
         1.554000	    0.328289	    0.328289
         1.556000	    0.327578	    0.327578
         1.558000	    0.326869	    0.326869
         1.560000	    0.326161	    0.326161
         1.562000	    0.325454	    0.325454
         1.564000	    0.324747	    0.324747
         1.566000	    0.324042	    0.324042
         1.568000	    0.323338	    0.323338
         1.570000	    0.322635	    0.322635
         1.572000	    0.321934	    0.321934
         1.574000	    0.321233	    0.321233
         1.576000	    0.320533	    0.320533
         1.578000	    0.319835	    0.319835
         1.580000	    0.319137	    0.319137
         1.582000	    0.318441	    0.318441
         1.584000	    0.317745	    0.317745
         1.586000	    0.317051	    0.317051
         1.588000	    0.316357	    0.316357
         1.590000	    0.315665	    0.315665
         1.592000	    0.314973	    0.314973
         1.594000	    0.314283	    0.314283
         1.596000	    0.313594	    0.313594
         1.598000	    0.312906	    0.312906
         1.600000	    0.312219	    0.312219
         1.602000	    0.311533	    0.311533
         1.604000	    0.310849	    0.310849
         1.606000	    0.310165	    0.310165
         1.608000	    0.309482	    0.309482
         1.610000	    0.308801	    0.308801
         1.612000	    0.308120	    0.308120
         1.614000	    0.307440	    0.307440
         1.616000	    0.306762	    0.306762
         1.618000	    0.306084	    0.306084
         1.620000	    0.305408	    0.305408
         1.622000	    0.304733	    0.304733
         1.624000	    0.304058	    0.304058
         1.626000	    0.303385	    0.303385
         1.628000	    0.302713	    0.302713
         1.630000	    0.302042	    0.302042
         1.632000	    0.301372	    0.301372
         1.634000	    0.300703	    0.300703
         1.636000	    0.300036	    0.300036
         1.638000	    0.299369	    0.299369
         1.640000	    0.298703	    0.298703
         1.642000	    0.298039	    0.298039
         1.644000	    0.297375	    0.297375
         1.646000	    0.296713	    0.296713
         1.648000	    0.296052	    0.296052
         1.650000	    0.295391	    0.295391
         1.652000	    0.294732	    0.294732
         1.654000	    0.294074	    0.294074
         1.656000	    0.293417	    0.293417
         1.658000	    0.292761	    0.292761
         1.660000	    0.292106	    0.292106
         1.662000	    0.291453	    0.291453
         1.664000	    0.290800	    0.290800
         1.666000	    0.290149	    0.290149
         1.668000	    0.289498	    0.289498
         1.670000	    0.288849	    0.288849
         1.672000	    0.288201	    0.288201
         1.674000	    0.287553	    0.287553
         1.676000	    0.286907	    0.286907
         1.678000	    0.286262	    0.286262
         1.680000	    0.285618	    0.285618
         1.682000	    0.284975	    0.284975
         1.684000	    0.284333	    0.284333
         1.686000	    0.283692	    0.283692
         1.688000	    0.283053	    0.283053
         1.690000	    0.282414	    0.282414
         1.692000	    0.281777	    0.281777
         1.694000	    0.281141	    0.281141
         1.696000	    0.280506	    0.280506
         1.698000	    0.279872	    0.279872
         1.700000	    0.279239	    0.279239
         1.702000	    0.278607	    0.278607
         1.704000	    0.277976	    0.277976
         1.706000	    0.277346	    0.277346
         1.708000	    0.276717	    0.276717
         1.710000	    0.276090	    0.276090
         1.712000	    0.275463	    0.275463
         1.714000	    0.274838	    0.274838
         1.716000	    0.274213	    0.274213
         1.718000	    0.273590	    0.273590
         1.720000	    0.272968	    0.272968
         1.722000	    0.272348	    0.272348
         1.724000	    0.271728	    0.271728
         1.726000	    0.271109	    0.271109
         1.728000	    0.270491	    0.270491
         1.730000	    0.269875	    0.269875
         1.732000	    0.269259	    0.269259
         1.734000	    0.268645	    0.268645
         1.736000	    0.268031	    0.268031
         1.738000	    0.267419	    0.267419
         1.740000	    0.266808	    0.266808
         1.742000	    0.266198	    0.266198
         1.744000	    0.265589	    0.265589
         1.746000	    0.264981	    0.264981
         1.748000	    0.264375	    0.264375
         1.750000	    0.263769	    0.263769
         1.752000	    0.263165	    0.263165
         1.754000	    0.262562	    0.262562
         1.756000	    0.261959	    0.261959
         1.758000	    0.261358	    0.261358
         1.760000	    0.260758	    0.260758
         1.762000	    0.260159	    0.260159
         1.764000	    0.259561	    0.259561
         1.766000	    0.258964	    0.258964
         1.768000	    0.258369	    0.258369
         1.770000	    0.257774	    0.257774
         1.772000	    0.257180	    0.257180
         1.774000	    0.256588	    0.256588
         1.776000	    0.255997	    0.255997
         1.778000	    0.255407	    0.255407
         1.780000	    0.254818	    0.254818
         1.782000	    0.254230	    0.254230
         1.784000	    0.253644	    0.253644
         1.786000	    0.253058	    0.253058
         1.788000	    0.252473	    0.252473
         1.790000	    0.251890	    0.251890
         1.792000	    0.251307	    0.251307
         1.794000	    0.250726	    0.250726
         1.796000	    0.250146	    0.250146
         1.798000	    0.249566	    0.249566
         1.800000	    0.248989	    0.248989
         1.802000	    0.248412	    0.248412
         1.804000	    0.247836	    0.247836
         1.806000	    0.247262	    0.247262
         1.808000	    0.246688	    0.246688
         1.810000	    0.246116	    0.246116
         1.812000	    0.245545	    0.245545
         1.814000	    0.244975	    0.244975
         1.816000	    0.244405	    0.244405
         1.818000	    0.243837	    0.243837
         1.820000	    0.243271	    0.243271
         1.822000	    0.242705	    0.242705
         1.824000	    0.242140	    0.242140
         1.826000	    0.241576	    0.241576
         1.828000	    0.241014	    0.241014
         1.830000	    0.240453	    0.240453
         1.832000	    0.239893	    0.239893
         1.834000	    0.239334	    0.239334
         1.836000	    0.238776	    0.238776
         1.838000	    0.238219	    0.238219
         1.840000	    0.237663	    0.237663
         1.842000	    0.237109	    0.237109
         1.844000	    0.236555	    0.236555
         1.846000	    0.236003	    0.236003
         1.848000	    0.235451	    0.235451
         1.850000	    0.234901	    0.234901
         1.852000	    0.234353	    0.234353
         1.854000	    0.233805	    0.233805
         1.856000	    0.233258	    0.233258
         1.858000	    0.232713	    0.232713
         1.860000	    0.232168	    0.232168
         1.862000	    0.231625	    0.231625
         1.864000	    0.231082	    0.231082
         1.866000	    0.230541	    0.230541
         1.868000	    0.230001	    0.230001
         1.870000	    0.229462	    0.229462
         1.872000	    0.228924	    0.228924
         1.874000	    0.228387	    0.228387
         1.876000	    0.227851	    0.227851
         1.878000	    0.227317	    0.227317
         1.880000	    0.226784	    0.226784
         1.882000	    0.226252	    0.226252
         1.884000	    0.225720	    0.225720
         1.886000	    0.225190	    0.225190
         1.888000	    0.224661	    0.224661
         1.890000	    0.224134	    0.224134
         1.892000	    0.223607	    0.223607
         1.894000	    0.223081	    0.223081
         1.896000	    0.222557	    0.222557
         1.898000	    0.222033	    0.222033
         1.900000	    0.221511	    0.221511
         1.902000	    0.220989	    0.220989
         1.904000	    0.220469	    0.220469
         1.906000	    0.219950	    0.219950
         1.908000	    0.219433	    0.219433
         1.910000	    0.218916	    0.218916
         1.912000	    0.218401	    0.218401
         1.914000	    0.217886	    0.217886
         1.916000	    0.217373	    0.217373
         1.918000	    0.216861	    0.216861
         1.920000	    0.216349	    0.216349
         1.922000	    0.215839	    0.215839
         1.924000	    0.215330	    0.215330
         1.926000	    0.214822	    0.214822
         1.928000	    0.214316	    0.214316
         1.930000	    0.213811	    0.213811
         1.932000	    0.213306	    0.213306
         1.934000	    0.212803	    0.212803
         1.936000	    0.212301	    0.212301
         1.938000	    0.211800	    0.211800
         1.940000	    0.211300	    0.211300
         1.942000	    0.210801	    0.210801
         1.944000	    0.210303	    0.210303
         1.946000	    0.209806	    0.209806
         1.948000	    0.209311	    0.209311
         1.950000	    0.208816	    0.208816
         1.952000	    0.208323	    0.208323
         1.954000	    0.207831	    0.207831
         1.956000	    0.207340	    0.207340
         1.958000	    0.206850	    0.206850
         1.960000	    0.206361	    0.206361
         1.962000	    0.205873	    0.205873
         1.964000	    0.205387	    0.205387
         1.966000	    0.204901	    0.204901
         1.968000	    0.204417	    0.204417
         1.970000	    0.203933	    0.203933
         1.972000	    0.203451	    0.203451
         1.974000	    0.202970	    0.202970
         1.976000	    0.202490	    0.202490
         1.978000	    0.202011	    0.202011
         1.980000	    0.201534	    0.201534
         1.982000	    0.201057	    0.201057
         1.984000	    0.200582	    0.200582
         1.986000	    0.200107	    0.200107
         1.988000	    0.199634	    0.199634
         1.990000	    0.199162	    0.199162
         1.992000	    0.198691	    0.198691
         1.994000	    0.198221	    0.198221
         1.996000	    0.197752	    0.197752
         1.998000	    0.197284	    0.197284
         2.000000	    0.196817	    0.196817
         2.002000	    0.196351	    0.196351
         2.004000	    0.195887	    0.195887
         2.006000	    0.195424	    0.195424
         2.008000	    0.194962	    0.194962
         2.010000	    0.194501	    0.194501
         2.012000	    0.194041	    0.194041
         2.014000	    0.193582	    0.193582
         2.016000	    0.193124	    0.193124
         2.018000	    0.192667	    0.192667
         2.020000	    0.192212	    0.192212
         2.022000	    0.191757	    0.191757
         2.024000	    0.191303	    0.191303
         2.026000	    0.190851	    0.190851
         2.028000	    0.190400	    0.190400
         2.030000	    0.189950	    0.189950
         2.032000	    0.189501	    0.189501
         2.034000	    0.189054	    0.189054
         2.036000	    0.188607	    0.188607
         2.038000	    0.188161	    0.188161
         2.040000	    0.187717	    0.187717
         2.042000	    0.187273	    0.187273
         2.044000	    0.186831	    0.186831
         2.046000	    0.186390	    0.186390
         2.048000	    0.185949	    0.185949
         2.050000	    0.185510	    0.185510
         2.052000	    0.185072	    0.185072
         2.054000	    0.184635	    0.184635
         2.056000	    0.184199	    0.184199
         2.058000	    0.183765	    0.183765
         2.060000	    0.183331	    0.183331
         2.062000	    0.182899	    0.182899
         2.064000	    0.182468	    0.182468
         2.066000	    0.182037	    0.182037
         2.068000	    0.181608	    0.181608
         2.070000	    0.181180	    0.181180
         2.072000	    0.180753	    0.180753
         2.074000	    0.180327	    0.180327
         2.076000	    0.179902	    0.179902
         2.078000	    0.179479	    0.179479
         2.080000	    0.179056	    0.179056
         2.082000	    0.178635	    0.178635
         2.084000	    0.178214	    0.178214
         2.086000	    0.177795	    0.177795
         2.088000	    0.177377	    0.177377
         2.090000	    0.176960	    0.176960
         2.092000	    0.176543	    0.176543
         2.094000	    0.176128	    0.176128
         2.096000	    0.175714	    0.175714
         2.098000	    0.175302	    0.175302
         2.100000	    0.174890	    0.174890
         2.102000	    0.174480	    0.174480
         2.104000	    0.174071	    0.174071
         2.106000	    0.173662	    0.173662
         2.108000	    0.173255	    0.173255
         2.110000	    0.172849	    0.172849
         2.112000	    0.172443	    0.172443
         2.114000	    0.172039	    0.172039
         2.116000	    0.171636	    0.171636
         2.118000	    0.171235	    0.171235
         2.120000	    0.170834	    0.170834
         2.122000	    0.170435	    0.170435
         2.124000	    0.170036	    0.170036
         2.126000	    0.169639	    0.169639
         2.128000	    0.169242	    0.169242
         2.130000	    0.168847	    0.168847
         2.132000	    0.168453	    0.168453
         2.134000	    0.168059	    0.168059
         2.136000	    0.167667	    0.167667
         2.138000	    0.167276	    0.167276
         2.140000	    0.166886	    0.166886
         2.142000	    0.166497	    0.166497
         2.144000	    0.166109	    0.166109
         2.146000	    0.165722	    0.165722
         2.148000	    0.165337	    0.165337
         2.150000	    0.164952	    0.164952
         2.152000	    0.164569	    0.164569
         2.154000	    0.164186	    0.164186
         2.156000	    0.163805	    0.163805
         2.158000	    0.163425	    0.163425
         2.160000	    0.163045	    0.163045
         2.162000	    0.162667	    0.162667
         2.164000	    0.162290	    0.162290
         2.166000	    0.161914	    0.161914
         2.168000	    0.161539	    0.161539
         2.170000	    0.161165	    0.161165
         2.172000	    0.160793	    0.160793
         2.174000	    0.160421	    0.160421
         2.176000	    0.160050	    0.160050
         2.178000	    0.159681	    0.159681
         2.180000	    0.159312	    0.159312
         2.182000	    0.158945	    0.158945
         2.184000	    0.158578	    0.158578
         2.186000	    0.158213	    0.158213
         2.188000	    0.157849	    0.157849
         2.190000	    0.157486	    0.157486
         2.192000	    0.157124	    0.157124
         2.194000	    0.156763	    0.156763
         2.196000	    0.156403	    0.156403
         2.198000	    0.156044	    0.156044
         2.200000	    0.155686	    0.155686
         2.202000	    0.155329	    0.155329
         2.204000	    0.154973	    0.154973
         2.206000	    0.154618	    0.154618
         2.208000	    0.154265	    0.154265
         2.210000	    0.153912	    0.153912
         2.212000	    0.153561	    0.153561
         2.214000	    0.153211	    0.153211
         2.216000	    0.152861	    0.152861
         2.218000	    0.152513	    0.152513
         2.220000	    0.152166	    0.152166
         2.222000	    0.151819	    0.151819
         2.224000	    0.151474	    0.151474
         2.226000	    0.151130	    0.151130
         2.228000	    0.150787	    0.150787
         2.230000	    0.150445	    0.150445
         2.232000	    0.150104	    0.150104
         2.234000	    0.149764	    0.149764
         2.236000	    0.149425	    0.149425
         2.238000	    0.149088	    0.149088
         2.240000	    0.148751	    0.148751
         2.242000	    0.148415	    0.148415
         2.244000	    0.148080	    0.148080
         2.246000	    0.147747	    0.147747
         2.248000	    0.147414	    0.147414
         2.250000	    0.147082	    0.147082
         2.252000	    0.146752	    0.146752
         2.254000	    0.146423	    0.146423
         2.256000	    0.146094	    0.146094
         2.258000	    0.145767	    0.145767
         2.260000	    0.145441	    0.145441
         2.262000	    0.145115	    0.145115
         2.264000	    0.144791	    0.144791
         2.266000	    0.144468	    0.144468
         2.268000	    0.144145	    0.144145
         2.270000	    0.143824	    0.143824
         2.272000	    0.143504	    0.143504
         2.274000	    0.143185	    0.143185
         2.276000	    0.142867	    0.142867
         2.278000	    0.142550	    0.142550
         2.280000	    0.142234	    0.142234
         2.282000	    0.141919	    0.141919
         2.284000	    0.141605	    0.141605
         2.286000	    0.141292	    0.141292
         2.288000	    0.140980	    0.140980
         2.290000	    0.140669	    0.140669
         2.292000	    0.140359	    0.140359
         2.294000	    0.140050	    0.140050
         2.296000	    0.139743	    0.139743
         2.298000	    0.139436	    0.139436
         2.300000	    0.139130	    0.139130
         2.302000	    0.138826	    0.138826
         2.304000	    0.138522	    0.138522
         2.306000	    0.138219	    0.138219
         2.308000	    0.137918	    0.137918
         2.310000	    0.137617	    0.137617
         2.312000	    0.137317	    0.137317
         2.314000	    0.137018	    0.137018
         2.316000	    0.136721	    0.136721
         2.318000	    0.136424	    0.136424
         2.320000	    0.136129	    0.136129
         2.322000	    0.135834	    0.135834
         2.324000	    0.135541	    0.135541
         2.326000	    0.135248	    0.135248
         2.328000	    0.134956	    0.134956
         2.330000	    0.134666	    0.134666
         2.332000	    0.134376	    0.134376
         2.334000	    0.134087	    0.134087
         2.336000	    0.133800	    0.133800
         2.338000	    0.133514	    0.133514
         2.340000	    0.133228	    0.133228
         2.342000	    0.132944	    0.132944
         2.344000	    0.132660	    0.132660
         2.346000	    0.132378	    0.132378
         2.348000	    0.132096	    0.132096
         2.350000	    0.131815	    0.131815
         2.352000	    0.131536	    0.131536
         2.354000	    0.131257	    0.131257
         2.356000	    0.130979	    0.130979
         2.358000	    0.130703	    0.130703
         2.360000	    0.130428	    0.130428
         2.362000	    0.130153	    0.130153
         2.364000	    0.129879	    0.129879
         2.366000	    0.129607	    0.129607
         2.368000	    0.129335	    0.129335
         2.370000	    0.129065	    0.129065
         2.372000	    0.128795	    0.128795
         2.374000	    0.128526	    0.128526
         2.376000	    0.128258	    0.128258
         2.378000	    0.127991	    0.127991
         2.380000	    0.127726	    0.127726
         2.382000	    0.127461	    0.127461
         2.384000	    0.127198	    0.127198
         2.386000	    0.126935	    0.126935
         2.388000	    0.126673	    0.126673
         2.390000	    0.126412	    0.126412
         2.392000	    0.126152	    0.126152
         2.394000	    0.125894	    0.125894
         2.396000	    0.125636	    0.125636
         2.398000	    0.125379	    0.125379
         2.400000	    0.125124	    0.125124
         2.402000	    0.124869	    0.124869
         2.404000	    0.124615	    0.124615
         2.406000	    0.124362	    0.124362
         2.408000	    0.124110	    0.124110
         2.410000	    0.123858	    0.123858
         2.412000	    0.123608	    0.123608
         2.414000	    0.123359	    0.123359
         2.416000	    0.123111	    0.123111
         2.418000	    0.122864	    0.122864
         2.420000	    0.122618	    0.122618
         2.422000	    0.122373	    0.122373
         2.424000	    0.122129	    0.122129
         2.426000	    0.121885	    0.121885
         2.428000	    0.121643	    0.121643
         2.430000	    0.121401	    0.121401
         2.432000	    0.121161	    0.121161
         2.434000	    0.120921	    0.120921
         2.436000	    0.120683	    0.120683
         2.438000	    0.120445	    0.120445
         2.440000	    0.120209	    0.120209
         2.442000	    0.119973	    0.119973
         2.444000	    0.119738	    0.119738
         2.446000	    0.119504	    0.119504
         2.448000	    0.119271	    0.119271
         2.450000	    0.119039	    0.119039
         2.452000	    0.118808	    0.118808
         2.454000	    0.118578	    0.118578
         2.456000	    0.118349	    0.118349
         2.458000	    0.118121	    0.118121
         2.460000	    0.117894	    0.117894
         2.462000	    0.117667	    0.117667
         2.464000	    0.117442	    0.117442
         2.466000	    0.117218	    0.117218
         2.468000	    0.116994	    0.116994
         2.470000	    0.116772	    0.116772
         2.472000	    0.116550	    0.116550
         2.474000	    0.116330	    0.116330
         2.476000	    0.116110	    0.116110
         2.478000	    0.115891	    0.115891
         2.480000	    0.115674	    0.115674
         2.482000	    0.115457	    0.115457
         2.484000	    0.115241	    0.115241
         2.486000	    0.115025	    0.115025
         2.488000	    0.114811	    0.114811
         2.490000	    0.114598	    0.114598
         2.492000	    0.114386	    0.114386
         2.494000	    0.114174	    0.114174
         2.496000	    0.113964	    0.113964
         2.498000	    0.113754	    0.113754
         2.500000	    0.113546	    0.113546
         2.502000	    0.113338	    0.113338
         2.504000	    0.113131	    0.113131
         2.506000	    0.112925	    0.112925
         2.508000	    0.112720	    0.112720
         2.510000	    0.112516	    0.112516
         2.512000	    0.112313	    0.112313
         2.514000	    0.112111	    0.112111
         2.516000	    0.111909	    0.111909
         2.518000	    0.111709	    0.111709
         2.520000	    0.111509	    0.111509
         2.522000	    0.111311	    0.111311
         2.524000	    0.111113	    0.111113
         2.526000	    0.110916	    0.110916
         2.528000	    0.110720	    0.110720
         2.530000	    0.110526	    0.110526
         2.532000	    0.110332	    0.110332
         2.534000	    0.110138	    0.110138
         2.536000	    0.109946	    0.109946
         2.538000	    0.109755	    0.109755
         2.540000	    0.109564	    0.109564
         2.542000	    0.109374	    0.109374
         2.544000	    0.109185	    0.109185
         2.546000	    0.108998	    0.108998
         2.548000	    0.108811	    0.108811
         2.550000	    0.108625	    0.108625
         2.552000	    0.108440	    0.108440
         2.554000	    0.108255	    0.108255
         2.556000	    0.108072	    0.108072
         2.558000	    0.107889	    0.107889
         2.560000	    0.107708	    0.107708
         2.562000	    0.107527	    0.107527
         2.564000	    0.107347	    0.107347
         2.566000	    0.107167	    0.107167
         2.568000	    0.106989	    0.106989
         2.570000	    0.106812	    0.106812
         2.572000	    0.106636	    0.106636
         2.574000	    0.106460	    0.106460
         2.576000	    0.106286	    0.106286
         2.578000	    0.106112	    0.106112
         2.580000	    0.105939	    0.105939
         2.582000	    0.105767	    0.105767
         2.584000	    0.105596	    0.105596
         2.586000	    0.105426	    0.105426
         2.588000	    0.105256	    0.105256
         2.590000	    0.105088	    0.105088
         2.592000	    0.104920	    0.104920
         2.594000	    0.104753	    0.104753
         2.596000	    0.104587	    0.104587
         2.598000	    0.104422	    0.104422
         2.600000	    0.104257	    0.104257
         2.602000	    0.104094	    0.104094
         2.604000	    0.103931	    0.103931
         2.606000	    0.103770	    0.103770
         2.608000	    0.103609	    0.103609
         2.610000	    0.103449	    0.103449
         2.612000	    0.103290	    0.103290
         2.614000	    0.103131	    0.103131
         2.616000	    0.102974	    0.102974
         2.618000	    0.102818	    0.102818
         2.620000	    0.102662	    0.102662
         2.622000	    0.102507	    0.102507
         2.624000	    0.102353	    0.102353
         2.626000	    0.102200	    0.102200
         2.628000	    0.102048	    0.102048
         2.630000	    0.101896	    0.101896
         2.632000	    0.101745	    0.101745
         2.634000	    0.101595	    0.101595
         2.636000	    0.101446	    0.101446
         2.638000	    0.101298	    0.101298
         2.640000	    0.101151	    0.101151
         2.642000	    0.101004	    0.101004
         2.644000	    0.100859	    0.100859
         2.646000	    0.100714	    0.100714
         2.648000	    0.100570	    0.100570
         2.650000	    0.100426	    0.100426
         2.652000	    0.100284	    0.100284
         2.654000	    0.100143	    0.100143
         2.656000	    0.100002	    0.100002
         2.658000	    0.099862	    0.099862
         2.660000	    0.099723	    0.099723
         2.662000	    0.099585	    0.099585
         2.664000	    0.099448	    0.099448
         2.666000	    0.099311	    0.099311
         2.668000	    0.099175	    0.099175
         2.670000	    0.099040	    0.099040
         2.672000	    0.098906	    0.098906
         2.674000	    0.098772	    0.098772
         2.676000	    0.098640	    0.098640
         2.678000	    0.098508	    0.098508
         2.680000	    0.098377	    0.098377
         2.682000	    0.098247	    0.098247
         2.684000	    0.098118	    0.098118
         2.686000	    0.097989	    0.097989
         2.688000	    0.097861	    0.097861
         2.690000	    0.097735	    0.097735
         2.692000	    0.097609	    0.097609
         2.694000	    0.097484	    0.097484
         2.696000	    0.097359	    0.097359
         2.698000	    0.097235	    0.097235
         2.700000	    0.097112	    0.097112
         2.702000	    0.096990	    0.096990
         2.704000	    0.096869	    0.096869
         2.706000	    0.096748	    0.096748
         2.708000	    0.096628	    0.096628
         2.710000	    0.096509	    0.096509
         2.712000	    0.096391	    0.096391
         2.714000	    0.096274	    0.096274
         2.716000	    0.096158	    0.096158
         2.718000	    0.096042	    0.096042
         2.720000	    0.095927	    0.095927
         2.722000	    0.095812	    0.095812
         2.724000	    0.095699	    0.095699
         2.726000	    0.095587	    0.095587
         2.728000	    0.095475	    0.095475
         2.730000	    0.095364	    0.095364
         2.732000	    0.095253	    0.095253
         2.734000	    0.095144	    0.095144
         2.736000	    0.095035	    0.095035
         2.738000	    0.094927	    0.094927
         2.740000	    0.094820	    0.094820
         2.742000	    0.094713	    0.094713
         2.744000	    0.094607	    0.094607
         2.746000	    0.094503	    0.094503
         2.748000	    0.094398	    0.094398
         2.750000	    0.094295	    0.094295
         2.752000	    0.094192	    0.094192
         2.754000	    0.094090	    0.094090
         2.756000	    0.093989	    0.093989
         2.758000	    0.093889	    0.093889
         2.760000	    0.093790	    0.093790
         2.762000	    0.093691	    0.093691
         2.764000	    0.093593	    0.093593
         2.766000	    0.093496	    0.093496
         2.768000	    0.093399	    0.093399
         2.770000	    0.093303	    0.093303
         2.772000	    0.093208	    0.093208
         2.774000	    0.093114	    0.093114
         2.776000	    0.093021	    0.093021
         2.778000	    0.092928	    0.092928
         2.780000	    0.092837	    0.092837
         2.782000	    0.092745	    0.092745
         2.784000	    0.092655	    0.092655
         2.786000	    0.092565	    0.092565
         2.788000	    0.092476	    0.092476
         2.790000	    0.092387	    0.092387
         2.792000	    0.092300	    0.092300
         2.794000	    0.092213	    0.092213
         2.796000	    0.092127	    0.092127
         2.798000	    0.092042	    0.092042
         2.800000	    0.091957	    0.091957
         2.802000	    0.091874	    0.091874
         2.804000	    0.091790	    0.091790
         2.806000	    0.091708	    0.091708
         2.808000	    0.091626	    0.091626
         2.810000	    0.091546	    0.091546
         2.812000	    0.091466	    0.091466
         2.814000	    0.091386	    0.091386
         2.816000	    0.091308	    0.091308
         2.818000	    0.091230	    0.091230
         2.820000	    0.091152	    0.091152
         2.822000	    0.091076	    0.091076
         2.824000	    0.091000	    0.091000
         2.826000	    0.090924	    0.090924
         2.828000	    0.090850	    0.090850
         2.830000	    0.090776	    0.090776
         2.832000	    0.090704	    0.090704
         2.834000	    0.090631	    0.090631
         2.836000	    0.090560	    0.090560
         2.838000	    0.090489	    0.090489
         2.840000	    0.090419	    0.090419
         2.842000	    0.090349	    0.090349
         2.844000	    0.090281	    0.090281
         2.846000	    0.090213	    0.090213
         2.848000	    0.090146	    0.090146
         2.850000	    0.090079	    0.090079
         2.852000	    0.090013	    0.090013
         2.854000	    0.089948	    0.089948
         2.856000	    0.089884	    0.089884
         2.858000	    0.089820	    0.089820
         2.860000	    0.089758	    0.089758
         2.862000	    0.089695	    0.089695
         2.864000	    0.089634	    0.089634
         2.866000	    0.089573	    0.089573
         2.868000	    0.089513	    0.089513
         2.870000	    0.089453	    0.089453
         2.872000	    0.089395	    0.089395
         2.874000	    0.089337	    0.089337
         2.876000	    0.089280	    0.089280
         2.878000	    0.089223	    0.089223
         2.880000	    0.089167	    0.089167
         2.882000	    0.089112	    0.089112
         2.884000	    0.089057	    0.089057
         2.886000	    0.089003	    0.089003
         2.888000	    0.088950	    0.088950
         2.890000	    0.088897	    0.088897
         2.892000	    0.088845	    0.088845
         2.894000	    0.088794	    0.088794
         2.896000	    0.088744	    0.088744
         2.898000	    0.088694	    0.088694
         2.900000	    0.088645	    0.088645
         2.902000	    0.088596	    0.088596
         2.904000	    0.088549	    0.088549
         2.906000	    0.088502	    0.088502
         2.908000	    0.088455	    0.088455
         2.910000	    0.088410	    0.088410
         2.912000	    0.088365	    0.088365
         2.914000	    0.088320	    0.088320
         2.916000	    0.088277	    0.088277
         2.918000	    0.088233	    0.088233
         2.920000	    0.088191	    0.088191
         2.922000	    0.088150	    0.088150
         2.924000	    0.088109	    0.088109
         2.926000	    0.088068	    0.088068
         2.928000	    0.088029	    0.088029
         2.930000	    0.087990	    0.087990
         2.932000	    0.087951	    0.087951
         2.934000	    0.087914	    0.087914
         2.936000	    0.087877	    0.087877
         2.938000	    0.087841	    0.087841
         2.940000	    0.087805	    0.087805
         2.942000	    0.087770	    0.087770
         2.944000	    0.087736	    0.087736
         2.946000	    0.087702	    0.087702
         2.948000	    0.087669	    0.087669
         2.950000	    0.087637	    0.087637
         2.952000	    0.087605	    0.087605
         2.954000	    0.087573	    0.087573
         2.956000	    0.087543	    0.087543
         2.958000	    0.087513	    0.087513
         2.960000	    0.087484	    0.087484
         2.962000	    0.087456	    0.087456
         2.964000	    0.087428	    0.087428
         2.966000	    0.087400	    0.087400
         2.968000	    0.087374	    0.087374
         2.970000	    0.087348	    0.087348
         2.972000	    0.087323	    0.087323
         2.974000	    0.087298	    0.087298
         2.976000	    0.087274	    0.087274
         2.978000	    0.087251	    0.087251
         2.980000	    0.087228	    0.087228
         2.982000	    0.087206	    0.087206
         2.984000	    0.087184	    0.087184
         2.986000	    0.087164	    0.087164
         2.988000	    0.087144	    0.087144
         2.990000	    0.087124	    0.087124
         2.992000	    0.087105	    0.087105
         2.994000	    0.087087	    0.087087
         2.996000	    0.087069	    0.087069
         2.998000	    0.087052	    0.087052
         3.000000	    0.087036	    0.087036
         3.002000	    0.087021	    0.087021
         3.004000	    0.087006	    0.087006
         3.006000	    0.086991	    0.086991
         3.008000	    0.086977	    0.086977
         3.010000	    0.086964	    0.086964
         3.012000	    0.086952	    0.086952
         3.014000	    0.086940	    0.086940
         3.016000	    0.086929	    0.086929
         3.018000	    0.086918	    0.086918
         3.020000	    0.086908	    0.086908
         3.022000	    0.086898	    0.086898
         3.024000	    0.086890	    0.086890
         3.026000	    0.086881	    0.086881
         3.028000	    0.086874	    0.086874
         3.030000	    0.086867	    0.086867
         3.032000	    0.086861	    0.086861
         3.034000	    0.086855	    0.086855
         3.036000	    0.086850	    0.086850
         3.038000	    0.086845	    0.086845
         3.040000	    0.086841	    0.086841
         3.042000	    0.086838	    0.086838
         3.044000	    0.086835	    0.086835
         3.046000	    0.086833	    0.086833
         3.048000	    0.086831	    0.086831
         3.050000	    0.086830	    0.086830
         3.052000	    0.086830	    0.086830
         3.054000	    0.086830	    0.086830
         3.056000	    0.086831	    0.086831
         3.058000	    0.086832	    0.086832
         3.060000	    0.086835	    0.086835
         3.062000	    0.086837	    0.086837
         3.064000	    0.086841	    0.086841
         3.066000	    0.086845	    0.086845
         3.068000	    0.086849	    0.086849
         3.070000	    0.086854	    0.086854
         3.072000	    0.086860	    0.086860
         3.074000	    0.086866	    0.086866
         3.076000	    0.086873	    0.086873
         3.078000	    0.086880	    0.086880
         3.080000	    0.086888	    0.086888
         3.082000	    0.086897	    0.086897
         3.084000	    0.086906	    0.086906
         3.086000	    0.086916	    0.086916
         3.088000	    0.086926	    0.086926
         3.090000	    0.086937	    0.086937
         3.092000	    0.086949	    0.086949
         3.094000	    0.086961	    0.086961
         3.096000	    0.086974	    0.086974
         3.098000	    0.086987	    0.086987
         3.100000	    0.087001	    0.087001
         3.102000	    0.087016	    0.087016
         3.104000	    0.087031	    0.087031
         3.106000	    0.087047	    0.087047
         3.108000	    0.087063	    0.087063
         3.110000	    0.087080	    0.087080
         3.112000	    0.087097	    0.087097
         3.114000	    0.087115	    0.087115
         3.116000	    0.087134	    0.087134
         3.118000	    0.087153	    0.087153
         3.120000	    0.087173	    0.087173
         3.122000	    0.087193	    0.087193
         3.124000	    0.087214	    0.087214
         3.126000	    0.087235	    0.087235
         3.128000	    0.087257	    0.087257
         3.130000	    0.087280	    0.087280
         3.132000	    0.087303	    0.087303
         3.134000	    0.087327	    0.087327
         3.136000	    0.087351	    0.087351
         3.138000	    0.087376	    0.087376
         3.140000	    0.087402	    0.087402
         3.142000	    0.087427	    0.087427
         3.144000	    0.087454	    0.087454
         3.146000	    0.087481	    0.087481
         3.148000	    0.087509	    0.087509
         3.150000	    0.087537	    0.087537
         3.152000	    0.087566	    0.087566
         3.154000	    0.087595	    0.087595
         3.156000	    0.087625	    0.087625
         3.158000	    0.087656	    0.087656
         3.160000	    0.087687	    0.087687
         3.162000	    0.087718	    0.087718
         3.164000	    0.087751	    0.087751
         3.166000	    0.087783	    0.087783
         3.168000	    0.087817	    0.087817
         3.170000	    0.087850	    0.087850
         3.172000	    0.087885	    0.087885
         3.174000	    0.087919	    0.087919
         3.176000	    0.087955	    0.087955
         3.178000	    0.087991	    0.087991
         3.180000	    0.088028	    0.088028
         3.182000	    0.088065	    0.088065
         3.184000	    0.088102	    0.088102
         3.186000	    0.088140	    0.088140
         3.188000	    0.088179	    0.088179
         3.190000	    0.088219	    0.088219
         3.192000	    0.088259	    0.088259
         3.194000	    0.088299	    0.088299
         3.196000	    0.088340	    0.088340
         3.198000	    0.088381	    0.088381
         3.200000	    0.088423	    0.088423
         3.202000	    0.088466	    0.088466
         3.204000	    0.088509	    0.088509
         3.206000	    0.088552	    0.088552
         3.208000	    0.088597	    0.088597
         3.210000	    0.088641	    0.088641
         3.212000	    0.088686	    0.088686
         3.214000	    0.088732	    0.088732
         3.216000	    0.088778	    0.088778
         3.218000	    0.088825	    0.088825
         3.220000	    0.088873	    0.088873
         3.222000	    0.088920	    0.088920
         3.224000	    0.088969	    0.088969
         3.226000	    0.089018	    0.089018
         3.228000	    0.089067	    0.089067
         3.230000	    0.089117	    0.089117
         3.232000	    0.089168	    0.089168
         3.234000	    0.089219	    0.089219
         3.236000	    0.089270	    0.089270
         3.238000	    0.089322	    0.089322
         3.240000	    0.089375	    0.089375
         3.242000	    0.089428	    0.089428
         3.244000	    0.089481	    0.089481
         3.246000	    0.089536	    0.089536
         3.248000	    0.089590	    0.089590
         3.250000	    0.089645	    0.089645
         3.252000	    0.089701	    0.089701
         3.254000	    0.089757	    0.089757
         3.256000	    0.089814	    0.089814
         3.258000	    0.089871	    0.089871
         3.260000	    0.089929	    0.089929
         3.262000	    0.089987	    0.089987
         3.264000	    0.090046	    0.090046
         3.266000	    0.090105	    0.090105
         3.268000	    0.090165	    0.090165
         3.270000	    0.090225	    0.090225
         3.272000	    0.090286	    0.090286
         3.274000	    0.090347	    0.090347
         3.276000	    0.090409	    0.090409
         3.278000	    0.090472	    0.090472
         3.280000	    0.090534	    0.090534
         3.282000	    0.090597	    0.090597
         3.284000	    0.090661	    0.090661
         3.286000	    0.090726	    0.090726
         3.288000	    0.090790	    0.090790
         3.290000	    0.090856	    0.090856
         3.292000	    0.090922	    0.090922
         3.294000	    0.090988	    0.090988
         3.296000	    0.091055	    0.091055
         3.298000	    0.091122	    0.091122
         3.300000	    0.091190	    0.091190
         3.302000	    0.091258	    0.091258
         3.304000	    0.091327	    0.091327
         3.306000	    0.091396	    0.091396
         3.308000	    0.091466	    0.091466
         3.310000	    0.091536	    0.091536
         3.312000	    0.091607	    0.091607
         3.314000	    0.091678	    0.091678
         3.316000	    0.091750	    0.091750
         3.318000	    0.091822	    0.091822
         3.320000	    0.091895	    0.091895
         3.322000	    0.091968	    0.091968
         3.324000	    0.092041	    0.092041
         3.326000	    0.092116	    0.092116
         3.328000	    0.092190	    0.092190
         3.330000	    0.092265	    0.092265
         3.332000	    0.092341	    0.092341
         3.334000	    0.092417	    0.092417
         3.336000	    0.092494	    0.092494
         3.338000	    0.092571	    0.092571
         3.340000	    0.092648	    0.092648
         3.342000	    0.092726	    0.092726
         3.344000	    0.092804	    0.092804
         3.346000	    0.092883	    0.092883
         3.348000	    0.092963	    0.092963
         3.350000	    0.093043	    0.093043
         3.352000	    0.093124	    0.093124
         3.354000	    0.093205	    0.093205
         3.356000	    0.093286	    0.093286
         3.358000	    0.093368	    0.093368
         3.360000	    0.093450	    0.093450
         3.362000	    0.093533	    0.093533
         3.364000	    0.093616	    0.093616
         3.366000	    0.093700	    0.093700
         3.368000	    0.093785	    0.093785
         3.370000	    0.093869	    0.093869
         3.372000	    0.093954	    0.093954
         3.374000	    0.094040	    0.094040
         3.376000	    0.094126	    0.094126
         3.378000	    0.094212	    0.094212
         3.380000	    0.094300	    0.094300
         3.382000	    0.094387	    0.094387
         3.384000	    0.094475	    0.094475
         3.386000	    0.094563	    0.094563
         3.388000	    0.094652	    0.094652
         3.390000	    0.094741	    0.094741
         3.392000	    0.094831	    0.094831
         3.394000	    0.094921	    0.094921
         3.396000	    0.095012	    0.095012
         3.398000	    0.095103	    0.095103
         3.400000	    0.095195	    0.095195
         3.402000	    0.095287	    0.095287
         3.404000	    0.095379	    0.095379
         3.406000	    0.095472	    0.095472
         3.408000	    0.095565	    0.095565
         3.410000	    0.095659	    0.095659
         3.412000	    0.095753	    0.095753
         3.414000	    0.095848	    0.095848
         3.416000	    0.095943	    0.095943
         3.418000	    0.096038	    0.096038
         3.420000	    0.096134	    0.096134
         3.422000	    0.096231	    0.096231
         3.424000	    0.096328	    0.096328
         3.426000	    0.096425	    0.096425
         3.428000	    0.096523	    0.096523
         3.430000	    0.096621	    0.096621
         3.432000	    0.096719	    0.096719
         3.434000	    0.096818	    0.096818
         3.436000	    0.096918	    0.096918
         3.438000	    0.097018	    0.097018
         3.440000	    0.097118	    0.097118
         3.442000	    0.097219	    0.097219
         3.444000	    0.097321	    0.097321
         3.446000	    0.097423	    0.097423
         3.448000	    0.097525	    0.097525
         3.450000	    0.097627	    0.097627
         3.452000	    0.097730	    0.097730
         3.454000	    0.097834	    0.097834
         3.456000	    0.097938	    0.097938
         3.458000	    0.098042	    0.098042
         3.460000	    0.098147	    0.098147
         3.462000	    0.098252	    0.098252
         3.464000	    0.098358	    0.098358
         3.466000	    0.098463	    0.098463
         3.468000	    0.098570	    0.098570
         3.470000	    0.098677	    0.098677
         3.472000	    0.098784	    0.098784
         3.474000	    0.098892	    0.098892
         3.476000	    0.099000	    0.099000
         3.478000	    0.099108	    0.099108
         3.480000	    0.099217	    0.099217
         3.482000	    0.099326	    0.099326
         3.484000	    0.099436	    0.099436
         3.486000	    0.099546	    0.099546
         3.488000	    0.099657	    0.099657
         3.490000	    0.099767	    0.099767
         3.492000	    0.099879	    0.099879
         3.494000	    0.099990	    0.099990
         3.496000	    0.100102	    0.100102
         3.498000	    0.100215	    0.100215
         3.500000	    0.100328	    0.100328
         3.502000	    0.100441	    0.100441
         3.504000	    0.100555	    0.100555
         3.506000	    0.100670	    0.100670
         3.508000	    0.100784	    0.100784
         3.510000	    0.100899	    0.100899
         3.512000	    0.101015	    0.101015
         3.514000	    0.101131	    0.101131
         3.516000	    0.101247	    0.101247
         3.518000	    0.101363	    0.101363
         3.520000	    0.101480	    0.101480
         3.522000	    0.101598	    0.101598
         3.524000	    0.101716	    0.101716
         3.526000	    0.101834	    0.101834
         3.528000	    0.101952	    0.101952
         3.530000	    0.102071	    0.102071
         3.532000	    0.102190	    0.102190
         3.534000	    0.102310	    0.102310
         3.536000	    0.102430	    0.102430
         3.538000	    0.102551	    0.102551
         3.540000	    0.102672	    0.102672
         3.542000	    0.102793	    0.102793
         3.544000	    0.102914	    0.102914
         3.546000	    0.103036	    0.103036
         3.548000	    0.103159	    0.103159
         3.550000	    0.103281	    0.103281
         3.552000	    0.103405	    0.103405
         3.554000	    0.103528	    0.103528
         3.556000	    0.103652	    0.103652
         3.558000	    0.103777	    0.103777
         3.560000	    0.103902	    0.103902
         3.562000	    0.104027	    0.104027
         3.564000	    0.104152	    0.104152
         3.566000	    0.104278	    0.104278
         3.568000	    0.104404	    0.104404
         3.570000	    0.104530	    0.104530
         3.572000	    0.104657	    0.104657
         3.574000	    0.104785	    0.104785
         3.576000	    0.104912	    0.104912
         3.578000	    0.105040	    0.105040
         3.580000	    0.105168	    0.105168
         3.582000	    0.105297	    0.105297
         3.584000	    0.105426	    0.105426
         3.586000	    0.105556	    0.105556
         3.588000	    0.105685	    0.105685
         3.590000	    0.105815	    0.105815
         3.592000	    0.105946	    0.105946
         3.594000	    0.106076	    0.106076
         3.596000	    0.106207	    0.106207
         3.598000	    0.106339	    0.106339
         3.600000	    0.106471	    0.106471
         3.602000	    0.106603	    0.106603
         3.604000	    0.106736	    0.106736
         3.606000	    0.106869	    0.106869
         3.608000	    0.107002	    0.107002
         3.610000	    0.107136	    0.107136
         3.612000	    0.107270	    0.107270
         3.614000	    0.107404	    0.107404
         3.616000	    0.107538	    0.107538
         3.618000	    0.107673	    0.107673
         3.620000	    0.107809	    0.107809
         3.622000	    0.107944	    0.107944
         3.624000	    0.108080	    0.108080
         3.626000	    0.108217	    0.108217
         3.628000	    0.108353	    0.108353
         3.630000	    0.108490	    0.108490
         3.632000	    0.108627	    0.108627
         3.634000	    0.108765	    0.108765
         3.636000	    0.108903	    0.108903
         3.638000	    0.109041	    0.109041
         3.640000	    0.109180	    0.109180
         3.642000	    0.109319	    0.109319
         3.644000	    0.109458	    0.109458
         3.646000	    0.109598	    0.109598
         3.648000	    0.109738	    0.109738
         3.650000	    0.109878	    0.109878
         3.652000	    0.110018	    0.110018
         3.654000	    0.110159	    0.110159
         3.656000	    0.110300	    0.110300
         3.658000	    0.110442	    0.110442
         3.660000	    0.110584	    0.110584
         3.662000	    0.110725	    0.110725
         3.664000	    0.110868	    0.110868
         3.666000	    0.111010	    0.111010
         3.668000	    0.111153	    0.111153
         3.670000	    0.111297	    0.111297
         3.672000	    0.111440	    0.111440
         3.674000	    0.111584	    0.111584
         3.676000	    0.111729	    0.111729
         3.678000	    0.111873	    0.111873
         3.680000	    0.112018	    0.112018
         3.682000	    0.112163	    0.112163
         3.684000	    0.112308	    0.112308
         3.686000	    0.112454	    0.112454
         3.688000	    0.112600	    0.112600
         3.690000	    0.112746	    0.112746
         3.692000	    0.112893	    0.112893
         3.694000	    0.113040	    0.113040
         3.696000	    0.113187	    0.113187
         3.698000	    0.113334	    0.113334
         3.700000	    0.113482	    0.113482
         3.702000	    0.113630	    0.113630
         3.704000	    0.113778	    0.113778
         3.706000	    0.113926	    0.113926
         3.708000	    0.114075	    0.114075
         3.710000	    0.114224	    0.114224
         3.712000	    0.114374	    0.114374
         3.714000	    0.114524	    0.114524
         3.716000	    0.114674	    0.114674
         3.718000	    0.114824	    0.114824
         3.720000	    0.114974	    0.114974
         3.722000	    0.115125	    0.115125
         3.724000	    0.115276	    0.115276
         3.726000	    0.115427	    0.115427
         3.728000	    0.115578	    0.115578
         3.730000	    0.115730	    0.115730
         3.732000	    0.115882	    0.115882
         3.734000	    0.116034	    0.116034
         3.736000	    0.116186	    0.116186
         3.738000	    0.116339	    0.116339
         3.740000	    0.116492	    0.116492
         3.742000	    0.116645	    0.116645
         3.744000	    0.116799	    0.116799
         3.746000	    0.116953	    0.116953
         3.748000	    0.117107	    0.117107
         3.750000	    0.117261	    0.117261
         3.752000	    0.117415	    0.117415
         3.754000	    0.117570	    0.117570
         3.756000	    0.117725	    0.117725
         3.758000	    0.117880	    0.117880
         3.760000	    0.118035	    0.118035
         3.762000	    0.118191	    0.118191
         3.764000	    0.118347	    0.118347
         3.766000	    0.118503	    0.118503
         3.768000	    0.118659	    0.118659
         3.770000	    0.118815	    0.118815
         3.772000	    0.118972	    0.118972
         3.774000	    0.119129	    0.119129
         3.776000	    0.119286	    0.119286
         3.778000	    0.119444	    0.119444
         3.780000	    0.119601	    0.119601
         3.782000	    0.119759	    0.119759
         3.784000	    0.119918	    0.119918
         3.786000	    0.120076	    0.120076
         3.788000	    0.120234	    0.120234
         3.790000	    0.120393	    0.120393
         3.792000	    0.120552	    0.120552
         3.794000	    0.120711	    0.120711
         3.796000	    0.120870	    0.120870
         3.798000	    0.121030	    0.121030
         3.800000	    0.121189	    0.121189
         3.802000	    0.121349	    0.121349
         3.804000	    0.121510	    0.121510
         3.806000	    0.121670	    0.121670
         3.808000	    0.121831	    0.121831
         3.810000	    0.121991	    0.121991
         3.812000	    0.122152	    0.122152
         3.814000	    0.122313	    0.122313
         3.816000	    0.122474	    0.122474
         3.818000	    0.122636	    0.122636
         3.820000	    0.122798	    0.122798
         3.822000	    0.122959	    0.122959
         3.824000	    0.123122	    0.123122
         3.826000	    0.123284	    0.123284
         3.828000	    0.123446	    0.123446
         3.830000	    0.123609	    0.123609
         3.832000	    0.123771	    0.123771
         3.834000	    0.123934	    0.123934
         3.836000	    0.124097	    0.124097
         3.838000	    0.124261	    0.124261
         3.840000	    0.124424	    0.124424
         3.842000	    0.124587	    0.124587
         3.844000	    0.124751	    0.124751
         3.846000	    0.124915	    0.124915
         3.848000	    0.125078	    0.125078
         3.850000	    0.125243	    0.125243
         3.852000	    0.125407	    0.125407
         3.854000	    0.125571	    0.125571
         3.856000	    0.125736	    0.125736
         3.858000	    0.125901	    0.125901
         3.860000	    0.126066	    0.126066
         3.862000	    0.126231	    0.126231
         3.864000	    0.126396	    0.126396
         3.866000	    0.126561	    0.126561
         3.868000	    0.126726	    0.126726
         3.870000	    0.126892	    0.126892
         3.872000	    0.127057	    0.127057
         3.874000	    0.127223	    0.127223
         3.876000	    0.127389	    0.127389
         3.878000	    0.127555	    0.127555
         3.880000	    0.127721	    0.127721
         3.882000	    0.127888	    0.127888
         3.884000	    0.128054	    0.128054
         3.886000	    0.128221	    0.128221
         3.888000	    0.128387	    0.128387
         3.890000	    0.128554	    0.128554
         3.892000	    0.128721	    0.128721
         3.894000	    0.128888	    0.128888
         3.896000	    0.129055	    0.129055
         3.898000	    0.129222	    0.129222
         3.900000	    0.129389	    0.129389
         3.902000	    0.129557	    0.129557
         3.904000	    0.129725	    0.129725
         3.906000	    0.129892	    0.129892
         3.908000	    0.130060	    0.130060
         3.910000	    0.130227	    0.130227
         3.912000	    0.130395	    0.130395
         3.914000	    0.130563	    0.130563
         3.916000	    0.130731	    0.130731
         3.918000	    0.130899	    0.130899
         3.920000	    0.131067	    0.131067
         3.922000	    0.131236	    0.131236
         3.924000	    0.131404	    0.131404
         3.926000	    0.131573	    0.131573
         3.928000	    0.131741	    0.131741
         3.930000	    0.131910	    0.131910
         3.932000	    0.132078	    0.132078
         3.934000	    0.132247	    0.132247
         3.936000	    0.132416	    0.132416
         3.938000	    0.132584	    0.132584
         3.940000	    0.132753	    0.132753
         3.942000	    0.132922	    0.132922
         3.944000	    0.133092	    0.133092
         3.946000	    0.133261	    0.133261
         3.948000	    0.133430	    0.133430
         3.950000	    0.133599	    0.133599
         3.952000	    0.133768	    0.133768
         3.954000	    0.133937	    0.133937
         3.956000	    0.134106	    0.134106
         3.958000	    0.134276	    0.134276
         3.960000	    0.134445	    0.134445
         3.962000	    0.134614	    0.134614
         3.964000	    0.134784	    0.134784
         3.966000	    0.134953	    0.134953
         3.968000	    0.135123	    0.135123
         3.970000	    0.135292	    0.135292
         3.972000	    0.135462	    0.135462
         3.974000	    0.135631	    0.135631
         3.976000	    0.135800	    0.135800
         3.978000	    0.135970	    0.135970
         3.980000	    0.136139	    0.136139
         3.982000	    0.136309	    0.136309
         3.984000	    0.136479	    0.136479
         3.986000	    0.136648	    0.136648
         3.988000	    0.136818	    0.136818
         3.990000	    0.136988	    0.136988
         3.992000	    0.137157	    0.137157
         3.994000	    0.137326	    0.137326
         3.996000	    0.137496	    0.137496
         3.998000	    0.137665	    0.137665
         4.000000	    0.137835	    0.137835
         4.002000	    0.138004	    0.138004
         4.004000	    0.138174	    0.138174
         4.006000	    0.138343	    0.138343
         4.008000	    0.138513	    0.138513
         4.010000	    0.138682	    0.138682
         4.012000	    0.138852	    0.138852
         4.014000	    0.139021	    0.139021
         4.016000	    0.139190	    0.139190
         4.018000	    0.139359	    0.139359
         4.020000	    0.139528	    0.139528
         4.022000	    0.139697	    0.139697
         4.024000	    0.139866	    0.139866
         4.026000	    0.140036	    0.140036
         4.028000	    0.140205	    0.140205
         4.030000	    0.140374	    0.140374
         4.032000	    0.140543	    0.140543
         4.034000	    0.140711	    0.140711
         4.036000	    0.140880	    0.140880
         4.038000	    0.141049	    0.141049
         4.040000	    0.141217	    0.141217
         4.042000	    0.141386	    0.141386
         4.044000	    0.141554	    0.141554
         4.046000	    0.141723	    0.141723
         4.048000	    0.141891	    0.141891
         4.050000	    0.142060	    0.142060
         4.052000	    0.142228	    0.142228
         4.054000	    0.142396	    0.142396
         4.056000	    0.142564	    0.142564
         4.058000	    0.142732	    0.142732
         4.060000	    0.142899	    0.142899
         4.062000	    0.143067	    0.143067
         4.064000	    0.143235	    0.143235
         4.066000	    0.143402	    0.143402
         4.068000	    0.143570	    0.143570
         4.070000	    0.143737	    0.143737
         4.072000	    0.143905	    0.143905
         4.074000	    0.144072	    0.144072
         4.076000	    0.144239	    0.144239
         4.078000	    0.144405	    0.144405
         4.080000	    0.144572	    0.144572
         4.082000	    0.144738	    0.144738
         4.084000	    0.144905	    0.144905
         4.086000	    0.145071	    0.145071
         4.088000	    0.145238	    0.145238
         4.090000	    0.145404	    0.145404
         4.092000	    0.145570	    0.145570
         4.094000	    0.145736	    0.145736
         4.096000	    0.145902	    0.145902
         4.098000	    0.146067	    0.146067
         4.100000	    0.146233	    0.146233
         4.102000	    0.146398	    0.146398
         4.104000	    0.146564	    0.146564
         4.106000	    0.146728	    0.146728
         4.108000	    0.146893	    0.146893
         4.110000	    0.147058	    0.147058
         4.112000	    0.147222	    0.147222
         4.114000	    0.147387	    0.147387
         4.116000	    0.147551	    0.147551
         4.118000	    0.147715	    0.147715
         4.120000	    0.147879	    0.147879
         4.122000	    0.148043	    0.148043
         4.124000	    0.148206	    0.148206
         4.126000	    0.148369	    0.148369
         4.128000	    0.148532	    0.148532
         4.130000	    0.148695	    0.148695
         4.132000	    0.148858	    0.148858
         4.134000	    0.149020	    0.149020
         4.136000	    0.149183	    0.149183
         4.138000	    0.149345	    0.149345
         4.140000	    0.149507	    0.149507
         4.142000	    0.149669	    0.149669
         4.144000	    0.149830	    0.149830
         4.146000	    0.149992	    0.149992
         4.148000	    0.150152	    0.150152
         4.150000	    0.150313	    0.150313
         4.152000	    0.150474	    0.150474
         4.154000	    0.150634	    0.150634
         4.156000	    0.150794	    0.150794
         4.158000	    0.150954	    0.150954
         4.160000	    0.151114	    0.151114
         4.162000	    0.151274	    0.151274
         4.164000	    0.151433	    0.151433
         4.166000	    0.151592	    0.151592
         4.168000	    0.151751	    0.151751
         4.170000	    0.151910	    0.151910
         4.172000	    0.152068	    0.152068
         4.174000	    0.152226	    0.152226
         4.176000	    0.152384	    0.152384
         4.178000	    0.152541	    0.152541
         4.180000	    0.152698	    0.152698
         4.182000	    0.152856	    0.152856
         4.184000	    0.153012	    0.153012
         4.186000	    0.153169	    0.153169
         4.188000	    0.153325	    0.153325
         4.190000	    0.153481	    0.153481
         4.192000	    0.153637	    0.153637
         4.194000	    0.153792	    0.153792
         4.196000	    0.153948	    0.153948
         4.198000	    0.154103	    0.154103
         4.200000	    0.154257	    0.154257
         4.202000	    0.154412	    0.154412
         4.204000	    0.154566	    0.154566
         4.206000	    0.154719	    0.154719
         4.208000	    0.154873	    0.154873
         4.210000	    0.155026	    0.155026
         4.212000	    0.155178	    0.155178
         4.214000	    0.155331	    0.155331
         4.216000	    0.155483	    0.155483
         4.218000	    0.155635	    0.155635
         4.220000	    0.155787	    0.155787
         4.222000	    0.155938	    0.155938
         4.224000	    0.156089	    0.156089
         4.226000	    0.156239	    0.156239
         4.228000	    0.156389	    0.156389
         4.230000	    0.156539	    0.156539
         4.232000	    0.156688	    0.156688
         4.234000	    0.156837	    0.156837
         4.236000	    0.156986	    0.156986
         4.238000	    0.157135	    0.157135
         4.240000	    0.157283	    0.157283
         4.242000	    0.157431	    0.157431
         4.244000	    0.157578	    0.157578
         4.246000	    0.157726	    0.157726
         4.248000	    0.157873	    0.157873
         4.250000	    0.158019	    0.158019
         4.252000	    0.158165	    0.158165
         4.254000	    0.158311	    0.158311
         4.256000	    0.158456	    0.158456
         4.258000	    0.158601	    0.158601
         4.260000	    0.158745	    0.158745
         4.262000	    0.158889	    0.158889
         4.264000	    0.159033	    0.159033
         4.266000	    0.159176	    0.159176
         4.268000	    0.159319	    0.159319
         4.270000	    0.159462	    0.159462
         4.272000	    0.159604	    0.159604
         4.274000	    0.159746	    0.159746
         4.276000	    0.159888	    0.159888
         4.278000	    0.160029	    0.160029
         4.280000	    0.160170	    0.160170
         4.282000	    0.160310	    0.160310
         4.284000	    0.160449	    0.160449
         4.286000	    0.160589	    0.160589
         4.288000	    0.160728	    0.160728
         4.290000	    0.160866	    0.160866
         4.292000	    0.161004	    0.161004
         4.294000	    0.161142	    0.161142
         4.296000	    0.161279	    0.161279
         4.298000	    0.161416	    0.161416
         4.300000	    0.161552	    0.161552
         4.302000	    0.161689	    0.161689
         4.304000	    0.161824	    0.161824
         4.306000	    0.161959	    0.161959
         4.308000	    0.162094	    0.162094
         4.310000	    0.162228	    0.162228
         4.312000	    0.162361	    0.162361
         4.314000	    0.162495	    0.162495
         4.316000	    0.162627	    0.162627
         4.318000	    0.162760	    0.162760
         4.320000	    0.162891	    0.162891
         4.322000	    0.163023	    0.163023
         4.324000	    0.163154	    0.163154
         4.326000	    0.163284	    0.163284
         4.328000	    0.163414	    0.163414
         4.330000	    0.163544	    0.163544
         4.332000	    0.163673	    0.163673
         4.334000	    0.163802	    0.163802
         4.336000	    0.163930	    0.163930
         4.338000	    0.164057	    0.164057
         4.340000	    0.164184	    0.164184
         4.342000	    0.164310	    0.164310
         4.344000	    0.164436	    0.164436
         4.346000	    0.164562	    0.164562
         4.348000	    0.164687	    0.164687
         4.350000	    0.164811	    0.164811
         4.352000	    0.164936	    0.164936
         4.354000	    0.165059	    0.165059
         4.356000	    0.165182	    0.165182
         4.358000	    0.165305	    0.165305
         4.360000	    0.165427	    0.165427
         4.362000	    0.165548	    0.165548
         4.364000	    0.165669	    0.165669
         4.366000	    0.165790	    0.165790
         4.368000	    0.165910	    0.165910
         4.370000	    0.166029	    0.166029
         4.372000	    0.166148	    0.166148
         4.374000	    0.166266	    0.166266
         4.376000	    0.166383	    0.166383
         4.378000	    0.166501	    0.166501
         4.380000	    0.166617	    0.166617
         4.382000	    0.166733	    0.166733
         4.384000	    0.166848	    0.166848
         4.386000	    0.166963	    0.166963
         4.388000	    0.167078	    0.167078
         4.390000	    0.167192	    0.167192
         4.392000	    0.167305	    0.167305
         4.394000	    0.167418	    0.167418
         4.396000	    0.167530	    0.167530
         4.398000	    0.167641	    0.167641
         4.400000	    0.167752	    0.167752
         4.402000	    0.167862	    0.167862
         4.404000	    0.167972	    0.167972
         4.406000	    0.168081	    0.168081
         4.408000	    0.168189	    0.168189
         4.410000	    0.168297	    0.168297
         4.412000	    0.168404	    0.168404
         4.414000	    0.168511	    0.168511
         4.416000	    0.168617	    0.168617
         4.418000	    0.168723	    0.168723
         4.420000	    0.168828	    0.168828
         4.422000	    0.168932	    0.168932
         4.424000	    0.169036	    0.169036
         4.426000	    0.169139	    0.169139
         4.428000	    0.169242	    0.169242
         4.430000	    0.169344	    0.169344
         4.432000	    0.169445	    0.169445
         4.434000	    0.169546	    0.169546
         4.436000	    0.169646	    0.169646
         4.438000	    0.169745	    0.169745
         4.440000	    0.169844	    0.169844
         4.442000	    0.169942	    0.169942
         4.444000	    0.170039	    0.170039
         4.446000	    0.170136	    0.170136
         4.448000	    0.170232	    0.170232
         4.450000	    0.170327	    0.170327
         4.452000	    0.170422	    0.170422
         4.454000	    0.170516	    0.170516
         4.456000	    0.170610	    0.170610
         4.458000	    0.170703	    0.170703
         4.460000	    0.170795	    0.170795
         4.462000	    0.170887	    0.170887
         4.464000	    0.170978	    0.170978
         4.466000	    0.171069	    0.171069
         4.468000	    0.171158	    0.171158
         4.470000	    0.171247	    0.171247
         4.472000	    0.171335	    0.171335
         4.474000	    0.171422	    0.171422
         4.476000	    0.171509	    0.171509
         4.478000	    0.171595	    0.171595
         4.480000	    0.171681	    0.171681
         4.482000	    0.171765	    0.171765
         4.484000	    0.171850	    0.171850
         4.486000	    0.171933	    0.171933
         4.488000	    0.172016	    0.172016
         4.490000	    0.172098	    0.172098
         4.492000	    0.172179	    0.172179
         4.494000	    0.172260	    0.172260
         4.496000	    0.172340	    0.172340
         4.498000	    0.172419	    0.172419
         4.500000	    0.172498	    0.172498
         4.502000	    0.172576	    0.172576
         4.504000	    0.172653	    0.172653
         4.506000	    0.172729	    0.172729
         4.508000	    0.172804	    0.172804
         4.510000	    0.172879	    0.172879
         4.512000	    0.172953	    0.172953
         4.514000	    0.173027	    0.173027
         4.516000	    0.173099	    0.173099
         4.518000	    0.173171	    0.173171
         4.520000	    0.173242	    0.173242
         4.522000	    0.173313	    0.173313
         4.524000	    0.173382	    0.173382
         4.526000	    0.173451	    0.173451
         4.528000	    0.173520	    0.173520
         4.530000	    0.173587	    0.173587
         4.532000	    0.173654	    0.173654
         4.534000	    0.173720	    0.173720
         4.536000	    0.173786	    0.173786
         4.538000	    0.173850	    0.173850
         4.540000	    0.173914	    0.173914
         4.542000	    0.173977	    0.173977
         4.544000	    0.174039	    0.174039
         4.546000	    0.174100	    0.174100
         4.548000	    0.174161	    0.174161
         4.550000	    0.174221	    0.174221
         4.552000	    0.174280	    0.174280
         4.554000	    0.174338	    0.174338
         4.556000	    0.174396	    0.174396
         4.558000	    0.174452	    0.174452
         4.560000	    0.174509	    0.174509
         4.562000	    0.174564	    0.174564
         4.564000	    0.174618	    0.174618
         4.566000	    0.174672	    0.174672
         4.568000	    0.174725	    0.174725
         4.570000	    0.174777	    0.174777
         4.572000	    0.174829	    0.174829
         4.574000	    0.174879	    0.174879
         4.576000	    0.174929	    0.174929
         4.578000	    0.174979	    0.174979
         4.580000	    0.175027	    0.175027
         4.582000	    0.175074	    0.175074
         4.584000	    0.175121	    0.175121
         4.586000	    0.175166	    0.175166
         4.588000	    0.175211	    0.175211
         4.590000	    0.175255	    0.175255
         4.592000	    0.175298	    0.175298
         4.594000	    0.175341	    0.175341
         4.596000	    0.175382	    0.175382
         4.598000	    0.175423	    0.175423
         4.600000	    0.175463	    0.175463
         4.602000	    0.175503	    0.175503
         4.604000	    0.175541	    0.175541
         4.606000	    0.175579	    0.175579
         4.608000	    0.175615	    0.175615
         4.610000	    0.175651	    0.175651
         4.612000	    0.175687	    0.175687
         4.614000	    0.175721	    0.175721
         4.616000	    0.175755	    0.175755
         4.618000	    0.175787	    0.175787
         4.620000	    0.175819	    0.175819
         4.622000	    0.175850	    0.175850
         4.624000	    0.175881	    0.175881
         4.626000	    0.175910	    0.175910
         4.628000	    0.175939	    0.175939
         4.630000	    0.175967	    0.175967
         4.632000	    0.175993	    0.175993
         4.634000	    0.176019	    0.176019
         4.636000	    0.176044	    0.176044
         4.638000	    0.176068	    0.176068
         4.640000	    0.176092	    0.176092
         4.642000	    0.176114	    0.176114
         4.644000	    0.176136	    0.176136
         4.646000	    0.176156	    0.176156
         4.648000	    0.176176	    0.176176
         4.650000	    0.176196	    0.176196
         4.652000	    0.176214	    0.176214
         4.654000	    0.176231	    0.176231
         4.656000	    0.176248	    0.176248
         4.658000	    0.176264	    0.176264
         4.660000	    0.176278	    0.176278
         4.662000	    0.176292	    0.176292
         4.664000	    0.176306	    0.176306
         4.666000	    0.176318	    0.176318
         4.668000	    0.176329	    0.176329
         4.670000	    0.176340	    0.176340
         4.672000	    0.176350	    0.176350
         4.674000	    0.176359	    0.176359
         4.676000	    0.176367	    0.176367
         4.678000	    0.176374	    0.176374
         4.680000	    0.176380	    0.176380
         4.682000	    0.176385	    0.176385
         4.684000	    0.176389	    0.176389
         4.686000	    0.176393	    0.176393
         4.688000	    0.176395	    0.176395
         4.690000	    0.176397	    0.176397
         4.692000	    0.176397	    0.176397
         4.694000	    0.176397	    0.176397
         4.696000	    0.176396	    0.176396
         4.698000	    0.176394	    0.176394
         4.700000	    0.176392	    0.176392
         4.702000	    0.176388	    0.176388
         4.704000	    0.176383	    0.176383
         4.706000	    0.176378	    0.176378
         4.708000	    0.176372	    0.176372
         4.710000	    0.176365	    0.176365
         4.712000	    0.176357	    0.176357
         4.714000	    0.176348	    0.176348
         4.716000	    0.176338	    0.176338
         4.718000	    0.176327	    0.176327
         4.720000	    0.176316	    0.176316
         4.722000	    0.176303	    0.176303
         4.724000	    0.176290	    0.176290
         4.726000	    0.176276	    0.176276
         4.728000	    0.176261	    0.176261
         4.730000	    0.176245	    0.176245
         4.732000	    0.176228	    0.176228
         4.734000	    0.176210	    0.176210
         4.736000	    0.176191	    0.176191
         4.738000	    0.176171	    0.176171
         4.740000	    0.176151	    0.176151
         4.742000	    0.176129	    0.176129
         4.744000	    0.176106	    0.176106
         4.746000	    0.176083	    0.176083
         4.748000	    0.176058	    0.176058
         4.750000	    0.176033	    0.176033
         4.752000	    0.176007	    0.176007
         4.754000	    0.175980	    0.175980
         4.756000	    0.175952	    0.175952
         4.758000	    0.175923	    0.175923
         4.760000	    0.175893	    0.175893
         4.762000	    0.175862	    0.175862
         4.764000	    0.175831	    0.175831
         4.766000	    0.175798	    0.175798
         4.768000	    0.175765	    0.175765
         4.770000	    0.175731	    0.175731
         4.772000	    0.175696	    0.175696
         4.774000	    0.175660	    0.175660
         4.776000	    0.175623	    0.175623
         4.778000	    0.175585	    0.175585
         4.780000	    0.175546	    0.175546
         4.782000	    0.175506	    0.175506
         4.784000	    0.175466	    0.175466
         4.786000	    0.175424	    0.175424
         4.788000	    0.175382	    0.175382
         4.790000	    0.175338	    0.175338
         4.792000	    0.175294	    0.175294
         4.794000	    0.175249	    0.175249
         4.796000	    0.175203	    0.175203
         4.798000	    0.175156	    0.175156
         4.800000	    0.175108	    0.175108
         4.802000	    0.175060	    0.175060
         4.804000	    0.175010	    0.175010
         4.806000	    0.174959	    0.174959
         4.808000	    0.174908	    0.174908
         4.810000	    0.174855	    0.174855
         4.812000	    0.174801	    0.174801
         4.814000	    0.174747	    0.174747
         4.816000	    0.174691	    0.174691
         4.818000	    0.174635	    0.174635
         4.820000	    0.174578	    0.174578
         4.822000	    0.174520	    0.174520
         4.824000	    0.174460	    0.174460
         4.826000	    0.174400	    0.174400
         4.828000	    0.174340	    0.174340
         4.830000	    0.174278	    0.174278
         4.832000	    0.174215	    0.174215
         4.834000	    0.174152	    0.174152
         4.836000	    0.174087	    0.174087
         4.838000	    0.174022	    0.174022
         4.840000	    0.173955	    0.173955
         4.842000	    0.173888	    0.173888
         4.844000	    0.173820	    0.173820
         4.846000	    0.173751	    0.173751
         4.848000	    0.173681	    0.173681
         4.850000	    0.173610	    0.173610
         4.852000	    0.173539	    0.173539
         4.854000	    0.173466	    0.173466
         4.856000	    0.173392	    0.173392
         4.858000	    0.173318	    0.173318
         4.860000	    0.173243	    0.173243
         4.862000	    0.173167	    0.173167
         4.864000	    0.173089	    0.173089
         4.866000	    0.173011	    0.173011
         4.868000	    0.172933	    0.172933
         4.870000	    0.172853	    0.172853
         4.872000	    0.172772	    0.172772
         4.874000	    0.172690	    0.172690
         4.876000	    0.172608	    0.172608
         4.878000	    0.172524	    0.172524
         4.880000	    0.172440	    0.172440
         4.882000	    0.172355	    0.172355
         4.884000	    0.172269	    0.172269
         4.886000	    0.172182	    0.172182
         4.888000	    0.172094	    0.172094
         4.890000	    0.172005	    0.172005
         4.892000	    0.171916	    0.171916
         4.894000	    0.171825	    0.171825
         4.896000	    0.171734	    0.171734
         4.898000	    0.171641	    0.171641
         4.900000	    0.171548	    0.171548
         4.902000	    0.171454	    0.171454
         4.904000	    0.171359	    0.171359
         4.906000	    0.171263	    0.171263
         4.908000	    0.171166	    0.171166
         4.910000	    0.171068	    0.171068
         4.912000	    0.170969	    0.170969
         4.914000	    0.170869	    0.170869
         4.916000	    0.170768	    0.170768
         4.918000	    0.170667	    0.170667
         4.920000	    0.170565	    0.170565
         4.922000	    0.170461	    0.170461
         4.924000	    0.170357	    0.170357
         4.926000	    0.170252	    0.170252
         4.928000	    0.170146	    0.170146
         4.930000	    0.170039	    0.170039
         4.932000	    0.169932	    0.169932
         4.934000	    0.169823	    0.169823
         4.936000	    0.169714	    0.169714
         4.938000	    0.169604	    0.169604
         4.940000	    0.169493	    0.169493
         4.942000	    0.169381	    0.169381
         4.944000	    0.169268	    0.169268
         4.946000	    0.169154	    0.169154
         4.948000	    0.169039	    0.169039
         4.950000	    0.168924	    0.168924
         4.952000	    0.168808	    0.168808
         4.954000	    0.168691	    0.168691
         4.956000	    0.168573	    0.168573
         4.958000	    0.168454	    0.168454
         4.960000	    0.168334	    0.168334
         4.962000	    0.168213	    0.168213
         4.964000	    0.168092	    0.168092
         4.966000	    0.167970	    0.167970
         4.968000	    0.167847	    0.167847
         4.970000	    0.167723	    0.167723
         4.972000	    0.167598	    0.167598
         4.974000	    0.167472	    0.167472
         4.976000	    0.167346	    0.167346
         4.978000	    0.167219	    0.167219
         4.980000	    0.167090	    0.167090
         4.982000	    0.166961	    0.166961
         4.984000	    0.166832	    0.166832
         4.986000	    0.166701	    0.166701
         4.988000	    0.166569	    0.166569
         4.990000	    0.166437	    0.166437
         4.992000	    0.166304	    0.166304
         4.994000	    0.166170	    0.166170
         4.996000	    0.166035	    0.166035
         4.998000	    0.165900	    0.165900
         5.000000	    0.165763	    0.165763
         5.002000	    0.165626	    0.165626
         5.004000	    0.165488	    0.165488
         5.006000	    0.165349	    0.165349
         5.008000	    0.165209	    0.165209
         5.010000	    0.165069	    0.165069
         5.012000	    0.164927	    0.164927
         5.014000	    0.164785	    0.164785
         5.016000	    0.164642	    0.164642
         5.018000	    0.164499	    0.164499
         5.020000	    0.164354	    0.164354
         5.022000	    0.164209	    0.164209
         5.024000	    0.164063	    0.164063
         5.026000	    0.163916	    0.163916
         5.028000	    0.163768	    0.163768
         5.030000	    0.163620	    0.163620
         5.032000	    0.163470	    0.163470
         5.034000	    0.163320	    0.163320
         5.036000	    0.163169	    0.163169
         5.038000	    0.163018	    0.163018
         5.040000	    0.162865	    0.162865
         5.042000	    0.162712	    0.162712
         5.044000	    0.162558	    0.162558
         5.046000	    0.162403	    0.162403
         5.048000	    0.162248	    0.162248
         5.050000	    0.162091	    0.162091
         5.052000	    0.161934	    0.161934
         5.054000	    0.161776	    0.161776
         5.056000	    0.161618	    0.161618
         5.058000	    0.161458	    0.161458
         5.060000	    0.161298	    0.161298
         5.062000	    0.161138	    0.161138
         5.064000	    0.160976	    0.160976
         5.066000	    0.160813	    0.160813
         5.068000	    0.160650	    0.160650
         5.070000	    0.160487	    0.160487
         5.072000	    0.160322	    0.160322
         5.074000	    0.160156	    0.160156
         5.076000	    0.159990	    0.159990
         5.078000	    0.159824	    0.159824
         5.080000	    0.159656	    0.159656
         5.082000	    0.159488	    0.159488
         5.084000	    0.159319	    0.159319
         5.086000	    0.159149	    0.159149
         5.088000	    0.158978	    0.158978
         5.090000	    0.158807	    0.158807
         5.092000	    0.158635	    0.158635
         5.094000	    0.158463	    0.158463
         5.096000	    0.158289	    0.158289
         5.098000	    0.158115	    0.158115
         5.100000	    0.157940	    0.157940
         5.102000	    0.157765	    0.157765
         5.104000	    0.157589	    0.157589
         5.106000	    0.157412	    0.157412
         5.108000	    0.157234	    0.157234
         5.110000	    0.157056	    0.157056
         5.112000	    0.156877	    0.156877
         5.114000	    0.156698	    0.156698
         5.116000	    0.156517	    0.156517
         5.118000	    0.156336	    0.156336
         5.120000	    0.156155	    0.156155
         5.122000	    0.155972	    0.155972
         5.124000	    0.155789	    0.155789
         5.126000	    0.155605	    0.155605
         5.128000	    0.155421	    0.155421
         5.130000	    0.155236	    0.155236
         5.132000	    0.155050	    0.155050
         5.134000	    0.154864	    0.154864
         5.136000	    0.154677	    0.154677
         5.138000	    0.154489	    0.154489
         5.140000	    0.154301	    0.154301
         5.142000	    0.154112	    0.154112
         5.144000	    0.153922	    0.153922
         5.146000	    0.153732	    0.153732
         5.148000	    0.153541	    0.153541
         5.150000	    0.153349	    0.153349
         5.152000	    0.153157	    0.153157
         5.154000	    0.152964	    0.152964
         5.156000	    0.152771	    0.152771
         5.158000	    0.152577	    0.152577
         5.160000	    0.152382	    0.152382
         5.162000	    0.152187	    0.152187
         5.164000	    0.151991	    0.151991
         5.166000	    0.151794	    0.151794
         5.168000	    0.151597	    0.151597
         5.170000	    0.151399	    0.151399
         5.172000	    0.151201	    0.151201
         5.174000	    0.151002	    0.151002
         5.176000	    0.150802	    0.150802
         5.178000	    0.150602	    0.150602
         5.180000	    0.150401	    0.150401
         5.182000	    0.150200	    0.150200
         5.184000	    0.149998	    0.149998
         5.186000	    0.149795	    0.149795
         5.188000	    0.149592	    0.149592
         5.190000	    0.149389	    0.149389
         5.192000	    0.149185	    0.149185
         5.194000	    0.148981	    0.148981
         5.196000	    0.148776	    0.148776
         5.198000	    0.148570	    0.148570
         5.200000	    0.148364	    0.148364
         5.202000	    0.148157	    0.148157
         5.204000	    0.147950	    0.147950
         5.206000	    0.147742	    0.147742
         5.208000	    0.147534	    0.147534
         5.210000	    0.147325	    0.147325
         5.212000	    0.147115	    0.147115
         5.214000	    0.146905	    0.146905
         5.216000	    0.146695	    0.146695
         5.218000	    0.146484	    0.146484
         5.220000	    0.146272	    0.146272
         5.222000	    0.146060	    0.146060
         5.224000	    0.145848	    0.145848
         5.226000	    0.145634	    0.145634
         5.228000	    0.145421	    0.145421
         5.230000	    0.145207	    0.145207
         5.232000	    0.144992	    0.144992
         5.234000	    0.144777	    0.144777
         5.236000	    0.144561	    0.144561
         5.238000	    0.144345	    0.144345
         5.240000	    0.144128	    0.144128
         5.242000	    0.143911	    0.143911
         5.244000	    0.143693	    0.143693
         5.246000	    0.143475	    0.143475
         5.248000	    0.143257	    0.143257
         5.250000	    0.143038	    0.143038
         5.252000	    0.142818	    0.142818
         5.254000	    0.142598	    0.142598
         5.256000	    0.142378	    0.142378
         5.258000	    0.142157	    0.142157
         5.260000	    0.141935	    0.141935
         5.262000	    0.141713	    0.141713
         5.264000	    0.141491	    0.141491
         5.266000	    0.141268	    0.141268
         5.268000	    0.141045	    0.141045
         5.270000	    0.140821	    0.140821
         5.272000	    0.140597	    0.140597
         5.274000	    0.140373	    0.140373
         5.276000	    0.140148	    0.140148
         5.278000	    0.139922	    0.139922
         5.280000	    0.139697	    0.139697
         5.282000	    0.139471	    0.139471
         5.284000	    0.139245	    0.139245
         5.286000	    0.139018	    0.139018
         5.288000	    0.138791	    0.138791
         5.290000	    0.138564	    0.138564
         5.292000	    0.138335	    0.138335
         5.294000	    0.138107	    0.138107
         5.296000	    0.137879	    0.137879
         5.298000	    0.137649	    0.137649
         5.300000	    0.137420	    0.137420
         5.302000	    0.137190	    0.137190
         5.304000	    0.136960	    0.136960
         5.306000	    0.136729	    0.136729
         5.308000	    0.136498	    0.136498
         5.310000	    0.136267	    0.136267
         5.312000	    0.136035	    0.136035
         5.314000	    0.135803	    0.135803
         5.316000	    0.135570	    0.135570
         5.318000	    0.135337	    0.135337
         5.320000	    0.135104	    0.135104
         5.322000	    0.134871	    0.134871
         5.324000	    0.134637	    0.134637
         5.326000	    0.134403	    0.134403
         5.328000	    0.134168	    0.134168
         5.330000	    0.133933	    0.133933
         5.332000	    0.133698	    0.133698
         5.334000	    0.133462	    0.133462
         5.336000	    0.133227	    0.133227
         5.338000	    0.132990	    0.132990
         5.340000	    0.132754	    0.132754
         5.342000	    0.132517	    0.132517
         5.344000	    0.132280	    0.132280
         5.346000	    0.132043	    0.132043
         5.348000	    0.131806	    0.131806
         5.350000	    0.131568	    0.131568
         5.352000	    0.131330	    0.131330
         5.354000	    0.131092	    0.131092
         5.356000	    0.130853	    0.130853
         5.358000	    0.130615	    0.130615
         5.360000	    0.130375	    0.130375
         5.362000	    0.130136	    0.130136
         5.364000	    0.129896	    0.129896
         5.366000	    0.129656	    0.129656
         5.368000	    0.129416	    0.129416
         5.370000	    0.129176	    0.129176
         5.372000	    0.128935	    0.128935
         5.374000	    0.128694	    0.128694
         5.376000	    0.128453	    0.128453
         5.378000	    0.128211	    0.128211
         5.380000	    0.127969	    0.127969
         5.382000	    0.127727	    0.127727
         5.384000	    0.127485	    0.127485
         5.386000	    0.127243	    0.127243
         5.388000	    0.127000	    0.127000
         5.390000	    0.126757	    0.126757
         5.392000	    0.126514	    0.126514
         5.394000	    0.126271	    0.126271
         5.396000	    0.126028	    0.126028
         5.398000	    0.125785	    0.125785
         5.400000	    0.125541	    0.125541
         5.402000	    0.125297	    0.125297
         5.404000	    0.125053	    0.125053
         5.406000	    0.124809	    0.124809
         5.408000	    0.124565	    0.124565
         5.410000	    0.124320	    0.124320
         5.412000	    0.124075	    0.124075
         5.414000	    0.123830	    0.123830
         5.416000	    0.123585	    0.123585
         5.418000	    0.123340	    0.123340
         5.420000	    0.123094	    0.123094
         5.422000	    0.122848	    0.122848
         5.424000	    0.122602	    0.122602
         5.426000	    0.122356	    0.122356
         5.428000	    0.122110	    0.122110
         5.430000	    0.121864	    0.121864
         5.432000	    0.121617	    0.121617
         5.434000	    0.121371	    0.121371
         5.436000	    0.121125	    0.121125
         5.438000	    0.120878	    0.120878
         5.440000	    0.120631	    0.120631
         5.442000	    0.120385	    0.120385
         5.444000	    0.120138	    0.120138
         5.446000	    0.119890	    0.119890
         5.448000	    0.119643	    0.119643
         5.450000	    0.119396	    0.119396
         5.452000	    0.119148	    0.119148
         5.454000	    0.118901	    0.118901
         5.456000	    0.118653	    0.118653
         5.458000	    0.118405	    0.118405
         5.460000	    0.118157	    0.118157
         5.462000	    0.117909	    0.117909
         5.464000	    0.117661	    0.117661
         5.466000	    0.117413	    0.117413
         5.468000	    0.117165	    0.117165
         5.470000	    0.116916	    0.116916
         5.472000	    0.116668	    0.116668
         5.474000	    0.116419	    0.116419
         5.476000	    0.116171	    0.116171
         5.478000	    0.115923	    0.115923
         5.480000	    0.115674	    0.115674
         5.482000	    0.115426	    0.115426
         5.484000	    0.115177	    0.115177
         5.486000	    0.114929	    0.114929
         5.488000	    0.114680	    0.114680
         5.490000	    0.114431	    0.114431
         5.492000	    0.114183	    0.114183
         5.494000	    0.113934	    0.113934
         5.496000	    0.113685	    0.113685
         5.498000	    0.113436	    0.113436
         5.500000	    0.113187	    0.113187
         5.502000	    0.112938	    0.112938
         5.504000	    0.112689	    0.112689
         5.506000	    0.112440	    0.112440
         5.508000	    0.112191	    0.112191
         5.510000	    0.111942	    0.111942
         5.512000	    0.111693	    0.111693
         5.514000	    0.111445	    0.111445
         5.516000	    0.111196	    0.111196
         5.518000	    0.110947	    0.110947
         5.520000	    0.110699	    0.110699
         5.522000	    0.110450	    0.110450
         5.524000	    0.110201	    0.110201
         5.526000	    0.109952	    0.109952
         5.528000	    0.109704	    0.109704
         5.530000	    0.109455	    0.109455
         5.532000	    0.109206	    0.109206
         5.534000	    0.108958	    0.108958
         5.536000	    0.108709	    0.108709
         5.538000	    0.108460	    0.108460
         5.540000	    0.108212	    0.108212
         5.542000	    0.107964	    0.107964
         5.544000	    0.107716	    0.107716
         5.546000	    0.107467	    0.107467
         5.548000	    0.107219	    0.107219
         5.550000	    0.106971	    0.106971
         5.552000	    0.106723	    0.106723
         5.554000	    0.106475	    0.106475
         5.556000	    0.106227	    0.106227
         5.558000	    0.105979	    0.105979
         5.560000	    0.105732	    0.105732
         5.562000	    0.105484	    0.105484
         5.564000	    0.105236	    0.105236
         5.566000	    0.104989	    0.104989
         5.568000	    0.104741	    0.104741
         5.570000	    0.104494	    0.104494
         5.572000	    0.104247	    0.104247
         5.574000	    0.104000	    0.104000
         5.576000	    0.103753	    0.103753
         5.578000	    0.103507	    0.103507
         5.580000	    0.103260	    0.103260
         5.582000	    0.103013	    0.103013
         5.584000	    0.102767	    0.102767
         5.586000	    0.102520	    0.102520
         5.588000	    0.102274	    0.102274
         5.590000	    0.102028	    0.102028
         5.592000	    0.101781	    0.101781
         5.594000	    0.101535	    0.101535
         5.596000	    0.101290	    0.101290
         5.598000	    0.101044	    0.101044
         5.600000	    0.100799	    0.100799
         5.602000	    0.100554	    0.100554
         5.604000	    0.100309	    0.100309
         5.606000	    0.100064	    0.100064
         5.608000	    0.099819	    0.099819
         5.610000	    0.099574	    0.099574
         5.612000	    0.099330	    0.099330
         5.614000	    0.099085	    0.099085
         5.616000	    0.098841	    0.098841
         5.618000	    0.098597	    0.098597
         5.620000	    0.098353	    0.098353
         5.622000	    0.098109	    0.098109
         5.624000	    0.097865	    0.097865
         5.626000	    0.097622	    0.097622
         5.628000	    0.097379	    0.097379
         5.630000	    0.097136	    0.097136
         5.632000	    0.096893	    0.096893
         5.634000	    0.096651	    0.096651
         5.636000	    0.096408	    0.096408
         5.638000	    0.096166	    0.096166
         5.640000	    0.095924	    0.095924
         5.642000	    0.095682	    0.095682
         5.644000	    0.095440	    0.095440
         5.646000	    0.095199	    0.095199
         5.648000	    0.094958	    0.094958
         5.650000	    0.094717	    0.094717
         5.652000	    0.094476	    0.094476
         5.654000	    0.094236	    0.094236
         5.656000	    0.093995	    0.093995
         5.658000	    0.093755	    0.093755
         5.660000	    0.093515	    0.093515
         5.662000	    0.093276	    0.093276
         5.664000	    0.093036	    0.093036
         5.666000	    0.092796	    0.092796
         5.668000	    0.092557	    0.092557
         5.670000	    0.092318	    0.092318
         5.672000	    0.092080	    0.092080
         5.674000	    0.091841	    0.091841
         5.676000	    0.091604	    0.091604
         5.678000	    0.091366	    0.091366
         5.680000	    0.091128	    0.091128
         5.682000	    0.090891	    0.090891
         5.684000	    0.090654	    0.090654
         5.686000	    0.090417	    0.090417
         5.688000	    0.090180	    0.090180
         5.690000	    0.089944	    0.089944
         5.692000	    0.089707	    0.089707
         5.694000	    0.089472	    0.089472
         5.696000	    0.089236	    0.089236
         5.698000	    0.089001	    0.089001
         5.700000	    0.088766	    0.088766
         5.702000	    0.088531	    0.088531
         5.704000	    0.088297	    0.088297
         5.706000	    0.088063	    0.088063
         5.708000	    0.087829	    0.087829
         5.710000	    0.087595	    0.087595
         5.712000	    0.087361	    0.087361
         5.714000	    0.087128	    0.087128
         5.716000	    0.086896	    0.086896
         5.718000	    0.086663	    0.086663
         5.720000	    0.086431	    0.086431
         5.722000	    0.086199	    0.086199
         5.724000	    0.085968	    0.085968
         5.726000	    0.085736	    0.085736
         5.728000	    0.085505	    0.085505
         5.730000	    0.085274	    0.085274
         5.732000	    0.085044	    0.085044
         5.734000	    0.084814	    0.084814
         5.736000	    0.084584	    0.084584
         5.738000	    0.084354	    0.084354
         5.740000	    0.084125	    0.084125
         5.742000	    0.083896	    0.083896
         5.744000	    0.083668	    0.083668
         5.746000	    0.083439	    0.083439
         5.748000	    0.083212	    0.083212
         5.750000	    0.082984	    0.082984
         5.752000	    0.082756	    0.082756
         5.754000	    0.082529	    0.082529
         5.756000	    0.082302	    0.082302
         5.758000	    0.082076	    0.082076
         5.760000	    0.081850	    0.081850
         5.762000	    0.081624	    0.081624
         5.764000	    0.081399	    0.081399
         5.766000	    0.081174	    0.081174
         5.768000	    0.080949	    0.080949
         5.770000	    0.080725	    0.080725
         5.772000	    0.080501	    0.080501
         5.774000	    0.080278	    0.080278
         5.776000	    0.080054	    0.080054
         5.778000	    0.079831	    0.079831
         5.780000	    0.079609	    0.079609
         5.782000	    0.079387	    0.079387
         5.784000	    0.079164	    0.079164
         5.786000	    0.078943	    0.078943
         5.788000	    0.078721	    0.078721
         5.790000	    0.078500	    0.078500
         5.792000	    0.078280	    0.078280
         5.794000	    0.078060	    0.078060
         5.796000	    0.077840	    0.077840
         5.798000	    0.077621	    0.077621
         5.800000	    0.077401	    0.077401
         5.802000	    0.077183	    0.077183
         5.804000	    0.076964	    0.076964
         5.806000	    0.076746	    0.076746
         5.808000	    0.076528	    0.076528
         5.810000	    0.076311	    0.076311
         5.812000	    0.076093	    0.076093
         5.814000	    0.075877	    0.075877
         5.816000	    0.075661	    0.075661
         5.818000	    0.075445	    0.075445
         5.820000	    0.075229	    0.075229
         5.822000	    0.075014	    0.075014
         5.824000	    0.074799	    0.074799
         5.826000	    0.074585	    0.074585
         5.828000	    0.074371	    0.074371
         5.830000	    0.074157	    0.074157
         5.832000	    0.073944	    0.073944
         5.834000	    0.073731	    0.073731
         5.836000	    0.073519	    0.073519
         5.838000	    0.073307	    0.073307
         5.840000	    0.073095	    0.073095
         5.842000	    0.072883	    0.072883
         5.844000	    0.072673	    0.072673
         5.846000	    0.072462	    0.072462
         5.848000	    0.072252	    0.072252
         5.850000	    0.072043	    0.072043
         5.852000	    0.071833	    0.071833
         5.854000	    0.071624	    0.071624
         5.856000	    0.071416	    0.071416
         5.858000	    0.071207	    0.071207
         5.860000	    0.070999	    0.070999
         5.862000	    0.070792	    0.070792
         5.864000	    0.070585	    0.070585
         5.866000	    0.070378	    0.070378
         5.868000	    0.070172	    0.070172
         5.870000	    0.069966	    0.069966
         5.872000	    0.069760	    0.069760
         5.874000	    0.069555	    0.069555
         5.876000	    0.069350	    0.069350
         5.878000	    0.069146	    0.069146
         5.880000	    0.068943	    0.068943
         5.882000	    0.068739	    0.068739
         5.884000	    0.068536	    0.068536
         5.886000	    0.068333	    0.068333
         5.888000	    0.068131	    0.068131
         5.890000	    0.067929	    0.067929
         5.892000	    0.067728	    0.067728
         5.894000	    0.067527	    0.067527
         5.896000	    0.067326	    0.067326
         5.898000	    0.067126	    0.067126
         5.900000	    0.066926	    0.066926
         5.902000	    0.066727	    0.066727
         5.904000	    0.066528	    0.066528
         5.906000	    0.066329	    0.066329
         5.908000	    0.066131	    0.066131
         5.910000	    0.065934	    0.065934
         5.912000	    0.065737	    0.065737
         5.914000	    0.065540	    0.065540
         5.916000	    0.065343	    0.065343
         5.918000	    0.065147	    0.065147
         5.920000	    0.064951	    0.064951
         5.922000	    0.064756	    0.064756
         5.924000	    0.064561	    0.064561
         5.926000	    0.064367	    0.064367
         5.928000	    0.064173	    0.064173
         5.930000	    0.063980	    0.063980
         5.932000	    0.063786	    0.063786
         5.934000	    0.063594	    0.063594
         5.936000	    0.063402	    0.063402
         5.938000	    0.063210	    0.063210
         5.940000	    0.063018	    0.063018
         5.942000	    0.062827	    0.062827
         5.944000	    0.062637	    0.062637
         5.946000	    0.062446	    0.062446
         5.948000	    0.062256	    0.062256
         5.950000	    0.062067	    0.062067
         5.952000	    0.061878	    0.061878
         5.954000	    0.061690	    0.061690
         5.956000	    0.061502	    0.061502
         5.958000	    0.061314	    0.061314
         5.960000	    0.061127	    0.061127
         5.962000	    0.060940	    0.060940
         5.964000	    0.060753	    0.060753
         5.966000	    0.060568	    0.060568
         5.968000	    0.060382	    0.060382
         5.970000	    0.060197	    0.060197
         5.972000	    0.060012	    0.060012
         5.974000	    0.059828	    0.059828
         5.976000	    0.059644	    0.059644
         5.978000	    0.059460	    0.059460
         5.980000	    0.059277	    0.059277
         5.982000	    0.059095	    0.059095
         5.984000	    0.058913	    0.058913
         5.986000	    0.058731	    0.058731
         5.988000	    0.058549	    0.058549
         5.990000	    0.058368	    0.058368
         5.992000	    0.058188	    0.058188
         5.994000	    0.058008	    0.058008
         5.996000	    0.057828	    0.057828
         5.998000	    0.057649	    0.057649
         6.000000	    0.057470	    0.057470
         6.002000	    0.057291	    0.057291
         6.004000	    0.057113	    0.057113
         6.006000	    0.056936	    0.056936
         6.008000	    0.056759	    0.056759
         6.010000	    0.056582	    0.056582
         6.012000	    0.056405	    0.056405
         6.014000	    0.056229	    0.056229
         6.016000	    0.056054	    0.056054
         6.018000	    0.055878	    0.055878
         6.020000	    0.055704	    0.055704
         6.022000	    0.055530	    0.055530
         6.024000	    0.055356	    0.055356
         6.026000	    0.055183	    0.055183
         6.028000	    0.055010	    0.055010
         6.030000	    0.054837	    0.054837
         6.032000	    0.054665	    0.054665
         6.034000	    0.054494	    0.054494
         6.036000	    0.054322	    0.054322
         6.038000	    0.054151	    0.054151
         6.040000	    0.053981	    0.053981
         6.042000	    0.053811	    0.053811
         6.044000	    0.053642	    0.053642
         6.046000	    0.053472	    0.053472
         6.048000	    0.053304	    0.053304
         6.050000	    0.053135	    0.053135
         6.052000	    0.052967	    0.052967
         6.054000	    0.052800	    0.052800
         6.056000	    0.052633	    0.052633
         6.058000	    0.052466	    0.052466
         6.060000	    0.052300	    0.052300
         6.062000	    0.052134	    0.052134
         6.064000	    0.051968	    0.051968
         6.066000	    0.051803	    0.051803
         6.068000	    0.051638	    0.051638
         6.070000	    0.051474	    0.051474
         6.072000	    0.051310	    0.051310
         6.074000	    0.051147	    0.051147
         6.076000	    0.050984	    0.050984
         6.078000	    0.050821	    0.050821
         6.080000	    0.050659	    0.050659
         6.082000	    0.050497	    0.050497
         6.084000	    0.050336	    0.050336
         6.086000	    0.050175	    0.050175
         6.088000	    0.050014	    0.050014
         6.090000	    0.049854	    0.049854
         6.092000	    0.049695	    0.049695
         6.094000	    0.049535	    0.049535
         6.096000	    0.049377	    0.049377
         6.098000	    0.049218	    0.049218
         6.100000	    0.049060	    0.049060
         6.102000	    0.048903	    0.048903
         6.104000	    0.048745	    0.048745
         6.106000	    0.048588	    0.048588
         6.108000	    0.048432	    0.048432
         6.110000	    0.048276	    0.048276
         6.112000	    0.048120	    0.048120
         6.114000	    0.047965	    0.047965
         6.116000	    0.047810	    0.047810
         6.118000	    0.047656	    0.047656
         6.120000	    0.047502	    0.047502
         6.122000	    0.047348	    0.047348
         6.124000	    0.047195	    0.047195
         6.126000	    0.047042	    0.047042
         6.128000	    0.046890	    0.046890
         6.130000	    0.046737	    0.046737
         6.132000	    0.046586	    0.046586
         6.134000	    0.046435	    0.046435
         6.136000	    0.046284	    0.046284
         6.138000	    0.046133	    0.046133
         6.140000	    0.045983	    0.045983
         6.142000	    0.045834	    0.045834
         6.144000	    0.045684	    0.045684
         6.146000	    0.045536	    0.045536
         6.148000	    0.045387	    0.045387
         6.150000	    0.045238	    0.045238
         6.152000	    0.045091	    0.045091
         6.154000	    0.044943	    0.044943
         6.156000	    0.044796	    0.044796
         6.158000	    0.044650	    0.044650
         6.160000	    0.044504	    0.044504
         6.162000	    0.044358	    0.044358
         6.164000	    0.044212	    0.044212
         6.166000	    0.044067	    0.044067
         6.168000	    0.043922	    0.043922
         6.170000	    0.043778	    0.043778
         6.172000	    0.043634	    0.043634
         6.174000	    0.043490	    0.043490
         6.176000	    0.043347	    0.043347
         6.178000	    0.043204	    0.043204
         6.180000	    0.043061	    0.043061
         6.182000	    0.042919	    0.042919
         6.184000	    0.042778	    0.042778
         6.186000	    0.042636	    0.042636
         6.188000	    0.042495	    0.042495
         6.190000	    0.042355	    0.042355
         6.192000	    0.042215	    0.042215
         6.194000	    0.042075	    0.042075
         6.196000	    0.041935	    0.041935
         6.198000	    0.041796	    0.041796
         6.200000	    0.041657	    0.041657
         6.202000	    0.041519	    0.041519
         6.204000	    0.041381	    0.041381
         6.206000	    0.041243	    0.041243
         6.208000	    0.041105	    0.041105
         6.210000	    0.040969	    0.040969
         6.212000	    0.040832	    0.040832
         6.214000	    0.040696	    0.040696
         6.216000	    0.040560	    0.040560
         6.218000	    0.040425	    0.040425
         6.220000	    0.040289	    0.040289
         6.222000	    0.040154	    0.040154
         6.224000	    0.040020	    0.040020
         6.226000	    0.039886	    0.039886
         6.228000	    0.039751	    0.039751
         6.230000	    0.039618	    0.039618
         6.232000	    0.039485	    0.039485
         6.234000	    0.039352	    0.039352
         6.236000	    0.039219	    0.039219
         6.238000	    0.039087	    0.039087
         6.240000	    0.038956	    0.038956
         6.242000	    0.038824	    0.038824
         6.244000	    0.038693	    0.038693
         6.246000	    0.038562	    0.038562
         6.248000	    0.038432	    0.038432
         6.250000	    0.038302	    0.038302
         6.252000	    0.038172	    0.038172
         6.254000	    0.038043	    0.038043
         6.256000	    0.037914	    0.037914
         6.258000	    0.037785	    0.037785
         6.260000	    0.037657	    0.037657
         6.262000	    0.037528	    0.037528
         6.264000	    0.037401	    0.037401
         6.266000	    0.037273	    0.037273
         6.268000	    0.037146	    0.037146
         6.270000	    0.037019	    0.037019
         6.272000	    0.036892	    0.036892
         6.274000	    0.036766	    0.036766
         6.276000	    0.036641	    0.036641
         6.278000	    0.036515	    0.036515
         6.280000	    0.036390	    0.036390
         6.282000	    0.036265	    0.036265
         6.284000	    0.036140	    0.036140
         6.286000	    0.036016	    0.036016
         6.288000	    0.035892	    0.035892
         6.290000	    0.035769	    0.035769
         6.292000	    0.035645	    0.035645
         6.294000	    0.035522	    0.035522
         6.296000	    0.035400	    0.035400
         6.298000	    0.035278	    0.035278
         6.300000	    0.035156	    0.035156
         6.302000	    0.035034	    0.035034
         6.304000	    0.034913	    0.034913
         6.306000	    0.034792	    0.034792
         6.308000	    0.034671	    0.034671
         6.310000	    0.034550	    0.034550
         6.312000	    0.034429	    0.034429
         6.314000	    0.034309	    0.034309
         6.316000	    0.034190	    0.034190
         6.318000	    0.034070	    0.034070
         6.320000	    0.033951	    0.033951
         6.322000	    0.033832	    0.033832
         6.324000	    0.033713	    0.033713
         6.326000	    0.033595	    0.033595
         6.328000	    0.033477	    0.033477
         6.330000	    0.033359	    0.033359
         6.332000	    0.033242	    0.033242
         6.334000	    0.033124	    0.033124
         6.336000	    0.033007	    0.033007
         6.338000	    0.032891	    0.032891
         6.340000	    0.032775	    0.032775
         6.342000	    0.032658	    0.032658
         6.344000	    0.032543	    0.032543
         6.346000	    0.032427	    0.032427
         6.348000	    0.032312	    0.032312
         6.350000	    0.032197	    0.032197
         6.352000	    0.032083	    0.032083
         6.354000	    0.031968	    0.031968
         6.356000	    0.031854	    0.031854
         6.358000	    0.031740	    0.031740
         6.360000	    0.031627	    0.031627
         6.362000	    0.031513	    0.031513
         6.364000	    0.031400	    0.031400
         6.366000	    0.031288	    0.031288
         6.368000	    0.031175	    0.031175
         6.370000	    0.031063	    0.031063
         6.372000	    0.030951	    0.030951
         6.374000	    0.030839	    0.030839
         6.376000	    0.030728	    0.030728
         6.378000	    0.030616	    0.030616
         6.380000	    0.030506	    0.030506
         6.382000	    0.030395	    0.030395
         6.384000	    0.030284	    0.030284
         6.386000	    0.030174	    0.030174
         6.388000	    0.030064	    0.030064
         6.390000	    0.029954	    0.029954
         6.392000	    0.029845	    0.029845
         6.394000	    0.029736	    0.029736
         6.396000	    0.029627	    0.029627
         6.398000	    0.029518	    0.029518
         6.400000	    0.029409	    0.029409
         6.402000	    0.029301	    0.029301
         6.404000	    0.029193	    0.029193
         6.406000	    0.029085	    0.029085
         6.408000	    0.028977	    0.028977
         6.410000	    0.028870	    0.028870
         6.412000	    0.028763	    0.028763
         6.414000	    0.028656	    0.028656
         6.416000	    0.028549	    0.028549
         6.418000	    0.028442	    0.028442
         6.420000	    0.028336	    0.028336
         6.422000	    0.028230	    0.028230
         6.424000	    0.028124	    0.028124
         6.426000	    0.028018	    0.028018
         6.428000	    0.027913	    0.027913
         6.430000	    0.027808	    0.027808
         6.432000	    0.027703	    0.027703
         6.434000	    0.027598	    0.027598
         6.436000	    0.027493	    0.027493
         6.438000	    0.027389	    0.027389
         6.440000	    0.027284	    0.027284
         6.442000	    0.027181	    0.027181
         6.444000	    0.027077	    0.027077
         6.446000	    0.026973	    0.026973
         6.448000	    0.026870	    0.026870
         6.450000	    0.026766	    0.026766
         6.452000	    0.026663	    0.026663
         6.454000	    0.026560	    0.026560
         6.456000	    0.026458	    0.026458
         6.458000	    0.026355	    0.026355
         6.460000	    0.026253	    0.026253
         6.462000	    0.026151	    0.026151
         6.464000	    0.026049	    0.026049
         6.466000	    0.025948	    0.025948
         6.468000	    0.025847	    0.025847
         6.470000	    0.025746	    0.025746
         6.472000	    0.025645	    0.025645
         6.474000	    0.025544	    0.025544
         6.476000	    0.025443	    0.025443
         6.478000	    0.025343	    0.025343
         6.480000	    0.025243	    0.025243
         6.482000	    0.025143	    0.025143
         6.484000	    0.025043	    0.025043
         6.486000	    0.024943	    0.024943
         6.488000	    0.024843	    0.024843
         6.490000	    0.024744	    0.024744
         6.492000	    0.024645	    0.024645
         6.494000	    0.024546	    0.024546
         6.496000	    0.024446	    0.024446
         6.498000	    0.024348	    0.024348
         6.500000	    0.024249	    0.024249
         6.502000	    0.024150	    0.024150
         6.504000	    0.024052	    0.024052
         6.506000	    0.023954	    0.023954
         6.508000	    0.023857	    0.023857
         6.510000	    0.023759	    0.023759
         6.512000	    0.023661	    0.023661
         6.514000	    0.023564	    0.023564
         6.516000	    0.023467	    0.023467
         6.518000	    0.023370	    0.023370
         6.520000	    0.023273	    0.023273
         6.522000	    0.023176	    0.023176
         6.524000	    0.023079	    0.023079
         6.526000	    0.022983	    0.022983
         6.528000	    0.022886	    0.022886
         6.530000	    0.022790	    0.022790
         6.532000	    0.022694	    0.022694
         6.534000	    0.022598	    0.022598
         6.536000	    0.022503	    0.022503
         6.538000	    0.022407	    0.022407
         6.540000	    0.022312	    0.022312
         6.542000	    0.022217	    0.022217
         6.544000	    0.022121	    0.022121
         6.546000	    0.022026	    0.022026
         6.548000	    0.021932	    0.021932
         6.550000	    0.021837	    0.021837
         6.552000	    0.021742	    0.021742
         6.554000	    0.021647	    0.021647
         6.556000	    0.021553	    0.021553
         6.558000	    0.021458	    0.021458
         6.560000	    0.021364	    0.021364
         6.562000	    0.021270	    0.021270
         6.564000	    0.021177	    0.021177
         6.566000	    0.021083	    0.021083
         6.568000	    0.020989	    0.020989
         6.570000	    0.020896	    0.020896
         6.572000	    0.020802	    0.020802
         6.574000	    0.020709	    0.020709
         6.576000	    0.020616	    0.020616
         6.578000	    0.020524	    0.020524
         6.580000	    0.020431	    0.020431
         6.582000	    0.020338	    0.020338
         6.584000	    0.020246	    0.020246
         6.586000	    0.020153	    0.020153
         6.588000	    0.020061	    0.020061
         6.590000	    0.019969	    0.019969
         6.592000	    0.019876	    0.019876
         6.594000	    0.019784	    0.019784
         6.596000	    0.019692	    0.019692
         6.598000	    0.019601	    0.019601
         6.600000	    0.019509	    0.019509
         6.602000	    0.019417	    0.019417
         6.604000	    0.019326	    0.019326
         6.606000	    0.019235	    0.019235
         6.608000	    0.019143	    0.019143
         6.610000	    0.019052	    0.019052
         6.612000	    0.018961	    0.018961
         6.614000	    0.018871	    0.018871
         6.616000	    0.018780	    0.018780
         6.618000	    0.018689	    0.018689
         6.620000	    0.018599	    0.018599
         6.622000	    0.018508	    0.018508
         6.624000	    0.018418	    0.018418
         6.626000	    0.018327	    0.018327
         6.628000	    0.018237	    0.018237
         6.630000	    0.018147	    0.018147
         6.632000	    0.018057	    0.018057
         6.634000	    0.017967	    0.017967
         6.636000	    0.017877	    0.017877
         6.638000	    0.017788	    0.017788
         6.640000	    0.017698	    0.017698
         6.642000	    0.017609	    0.017609
         6.644000	    0.017519	    0.017519
         6.646000	    0.017430	    0.017430
         6.648000	    0.017341	    0.017341
         6.650000	    0.017251	    0.017251
         6.652000	    0.017162	    0.017162
         6.654000	    0.017074	    0.017074
         6.656000	    0.016985	    0.016985
         6.658000	    0.016896	    0.016896
         6.660000	    0.016807	    0.016807
         6.662000	    0.016718	    0.016718
         6.664000	    0.016629	    0.016629
         6.666000	    0.016541	    0.016541
         6.668000	    0.016452	    0.016452
         6.670000	    0.016364	    0.016364
         6.672000	    0.016276	    0.016276
         6.674000	    0.016188	    0.016188
         6.676000	    0.016100	    0.016100
         6.678000	    0.016012	    0.016012
         6.680000	    0.015924	    0.015924
         6.682000	    0.015836	    0.015836
         6.684000	    0.015748	    0.015748
         6.686000	    0.015660	    0.015660
         6.688000	    0.015573	    0.015573
         6.690000	    0.015485	    0.015485
         6.692000	    0.015398	    0.015398
         6.694000	    0.015311	    0.015311
         6.696000	    0.015223	    0.015223
         6.698000	    0.015136	    0.015136
         6.700000	    0.015049	    0.015049
         6.702000	    0.014962	    0.014962
         6.704000	    0.014875	    0.014875
         6.706000	    0.014788	    0.014788
         6.708000	    0.014701	    0.014701
         6.710000	    0.014614	    0.014614
         6.712000	    0.014527	    0.014527
         6.714000	    0.014440	    0.014440
         6.716000	    0.014354	    0.014354
         6.718000	    0.014268	    0.014268
         6.720000	    0.014181	    0.014181
         6.722000	    0.014095	    0.014095
         6.724000	    0.014009	    0.014009
         6.726000	    0.013923	    0.013923
         6.728000	    0.013837	    0.013837
         6.730000	    0.013750	    0.013750
         6.732000	    0.013664	    0.013664
         6.734000	    0.013578	    0.013578
         6.736000	    0.013492	    0.013492
         6.738000	    0.013406	    0.013406
         6.740000	    0.013320	    0.013320
         6.742000	    0.013235	    0.013235
         6.744000	    0.013149	    0.013149
         6.746000	    0.013063	    0.013063
         6.748000	    0.012978	    0.012978
         6.750000	    0.012893	    0.012893
         6.752000	    0.012807	    0.012807
         6.754000	    0.012722	    0.012722
         6.756000	    0.012637	    0.012637
         6.758000	    0.012552	    0.012552
         6.760000	    0.012467	    0.012467
         6.762000	    0.012382	    0.012382
         6.764000	    0.012297	    0.012297
         6.766000	    0.012212	    0.012212
         6.768000	    0.012128	    0.012128
         6.770000	    0.012043	    0.012043
         6.772000	    0.011958	    0.011958
         6.774000	    0.011874	    0.011874
         6.776000	    0.011790	    0.011790
         6.778000	    0.011705	    0.011705
         6.780000	    0.011621	    0.011621
         6.782000	    0.011537	    0.011537
         6.784000	    0.011453	    0.011453
         6.786000	    0.011368	    0.011368
         6.788000	    0.011285	    0.011285
         6.790000	    0.011201	    0.011201
         6.792000	    0.011117	    0.011117
         6.794000	    0.011033	    0.011033
         6.796000	    0.010949	    0.010949
         6.798000	    0.010866	    0.010866
         6.800000	    0.010782	    0.010782
         6.802000	    0.010699	    0.010699
         6.804000	    0.010615	    0.010615
         6.806000	    0.010532	    0.010532
         6.808000	    0.010449	    0.010449
         6.810000	    0.010366	    0.010366
         6.812000	    0.010282	    0.010282
         6.814000	    0.010200	    0.010200
         6.816000	    0.010117	    0.010117
         6.818000	    0.010035	    0.010035
         6.820000	    0.009952	    0.009952
         6.822000	    0.009870	    0.009870
         6.824000	    0.009788	    0.009788
         6.826000	    0.009705	    0.009705
         6.828000	    0.009623	    0.009623
         6.830000	    0.009541	    0.009541
         6.832000	    0.009459	    0.009459
         6.834000	    0.009376	    0.009376
         6.836000	    0.009295	    0.009295
         6.838000	    0.009213	    0.009213
         6.840000	    0.009131	    0.009131
         6.842000	    0.009049	    0.009049
         6.844000	    0.008968	    0.008968
         6.846000	    0.008887	    0.008887
         6.848000	    0.008806	    0.008806
         6.850000	    0.008725	    0.008725
         6.852000	    0.008643	    0.008643
         6.854000	    0.008563	    0.008563
         6.856000	    0.008482	    0.008482
         6.858000	    0.008401	    0.008401
         6.860000	    0.008321	    0.008321
         6.862000	    0.008241	    0.008241
         6.864000	    0.008161	    0.008161
         6.866000	    0.008080	    0.008080
         6.868000	    0.008000	    0.008000
         6.870000	    0.007920	    0.007920
         6.872000	    0.007841	    0.007841
         6.874000	    0.007761	    0.007761
         6.876000	    0.007681	    0.007681
         6.878000	    0.007602	    0.007602
         6.880000	    0.007523	    0.007523
         6.882000	    0.007444	    0.007444
         6.884000	    0.007365	    0.007365
         6.886000	    0.007286	    0.007286
         6.888000	    0.007208	    0.007208
         6.890000	    0.007129	    0.007129
         6.892000	    0.007051	    0.007051
         6.894000	    0.006973	    0.006973
         6.896000	    0.006895	    0.006895
         6.898000	    0.006817	    0.006817
         6.900000	    0.006739	    0.006739
         6.902000	    0.006661	    0.006661
         6.904000	    0.006584	    0.006584
         6.906000	    0.006507	    0.006507
         6.908000	    0.006429	    0.006429
         6.910000	    0.006352	    0.006352
         6.912000	    0.006276	    0.006276
         6.914000	    0.006199	    0.006199
         6.916000	    0.006123	    0.006123
         6.918000	    0.006046	    0.006046
         6.920000	    0.005971	    0.005971
         6.922000	    0.005895	    0.005895
         6.924000	    0.005819	    0.005819
         6.926000	    0.005743	    0.005743
         6.928000	    0.005669	    0.005669
         6.930000	    0.005594	    0.005594
         6.932000	    0.005518	    0.005518
         6.934000	    0.005444	    0.005444
         6.936000	    0.005370	    0.005370
         6.938000	    0.005296	    0.005296
         6.940000	    0.005221	    0.005221
         6.942000	    0.005148	    0.005148
         6.944000	    0.005074	    0.005074
         6.946000	    0.005001	    0.005001
         6.948000	    0.004927	    0.004927
         6.950000	    0.004855	    0.004855
         6.952000	    0.004782	    0.004782
         6.954000	    0.004709	    0.004709
         6.956000	    0.004637	    0.004637
         6.958000	    0.004566	    0.004566
         6.960000	    0.004494	    0.004494
         6.962000	    0.004423	    0.004423
         6.964000	    0.004352	    0.004352
         6.966000	    0.004281	    0.004281
         6.968000	    0.004210	    0.004210
         6.970000	    0.004141	    0.004141
         6.972000	    0.004070	    0.004070
         6.974000	    0.004001	    0.004001
         6.976000	    0.003932	    0.003932
         6.978000	    0.003863	    0.003863
         6.980000	    0.003793	    0.003793
         6.982000	    0.003725	    0.003725
         6.984000	    0.003657	    0.003657
         6.986000	    0.003589	    0.003589
         6.988000	    0.003521	    0.003521
         6.990000	    0.003454	    0.003454
         6.992000	    0.003388	    0.003388
         6.994000	    0.003322	    0.003322
         6.996000	    0.003255	    0.003255
         6.998000	    0.003189	    0.003189
         7.000000	    0.003124	    0.003124
         7.002000	    0.003059	    0.003059
         7.004000	    0.002994	    0.002994
         7.006000	    0.002930	    0.002930
         7.008000	    0.002866	    0.002866
         7.010000	    0.002803	    0.002803
         7.012000	    0.002739	    0.002739
         7.014000	    0.002677	    0.002677
         7.016000	    0.002614	    0.002614
         7.018000	    0.002552	    0.002552
         7.020000	    0.002491	    0.002491
         7.022000	    0.002429	    0.002429
         7.024000	    0.002368	    0.002368
         7.026000	    0.002308	    0.002308
         7.028000	    0.002248	    0.002248
         7.030000	    0.002188	    0.002188
         7.032000	    0.002130	    0.002130
         7.034000	    0.002072	    0.002072
         7.036000	    0.002014	    0.002014
         7.038000	    0.001956	    0.001956
         7.040000	    0.001899	    0.001899
         7.042000	    0.001843	    0.001843
         7.044000	    0.001786	    0.001786
         7.046000	    0.001730	    0.001730
         7.048000	    0.001676	    0.001676
         7.050000	    0.001622	    0.001622
         7.052000	    0.001567	    0.001567
         7.054000	    0.001514	    0.001514
         7.056000	    0.001461	    0.001461
         7.058000	    0.001409	    0.001409
         7.060000	    0.001357	    0.001357
         7.062000	    0.001306	    0.001306
         7.064000	    0.001256	    0.001256
         7.066000	    0.001206	    0.001206
         7.068000	    0.001157	    0.001157
         7.070000	    0.001109	    0.001109
         7.072000	    0.001061	    0.001061
         7.074000	    0.001014	    0.001014
         7.076000	    0.000967	    0.000967
         7.078000	    0.000921	    0.000921
         7.080000	    0.000876	    0.000876
         7.082000	    0.000832	    0.000832
         7.084000	    0.000788	    0.000788
         7.086000	    0.000745	    0.000745
         7.088000	    0.000703	    0.000703
         7.090000	    0.000662	    0.000662
         7.092000	    0.000621	    0.000621
         7.094000	    0.000580	    0.000580
         7.096000	    0.000542	    0.000542
         7.098000	    0.000505	    0.000505
         7.100000	    0.000467	    0.000467
         7.102000	    0.000430	    0.000430
         7.104000	    0.000396	    0.000396
         7.106000	    0.000362	    0.000362
         7.108000	    0.000328	    0.000328
         7.110000	    0.000295	    0.000295
         7.112000	    0.000265	    0.000265
         7.114000	    0.000236	    0.000236
         7.116000	    0.000206	    0.000206
         7.118000	    0.000179	    0.000179
         7.120000	    0.000153	    0.000153
         7.122000	    0.000129	    0.000129
         7.124000	    0.000106	    0.000106
         7.126000	    0.000084	    0.000084
         7.128000	    0.000063	    0.000063
         7.130000	    0.000047	    0.000047
         7.132000	    0.000031	    0.000031
         7.134000	    0.000016	    0.000016
         7.136000	    0.000004	    0.000004
         7.138000	    0.000001	    0.000001
         7.140000	    0.000001	    0.000001
         7.142000	    0.000001	    0.000001
         7.144000	    0.000000	    0.000000
         7.146000	    0.000000	    0.000000
         7.148000	    0.000000	    0.000000
         7.150000	    0.000000	    0.000000
         7.152000	    0.000000	    0.000000
         7.154000	    0.000000	    0.000000
         7.156000	    0.000000	    0.000000
         7.158000	    0.000000	    0.000000
         7.160000	    0.000000	    0.000000
         7.162000	    0.000000	    0.000000
         7.164000	    0.000000	    0.000000
         7.166000	    0.000000	    0.000000
         7.168000	    0.000000	    0.000000
         7.170000	    0.000000	    0.000000
         7.172000	    0.000000	    0.000000
         7.174000	    0.000000	    0.000000
         7.176000	    0.000000	    0.000000
         7.178000	    0.000000	    0.000000
         7.180000	    0.000000	    0.000000
         7.182000	    0.000000	    0.000000
         7.184000	    0.000000	    0.000000
         7.186000	    0.000000	    0.000000
         7.188000	    0.000000	    0.000000
         7.190000	    0.000000	    0.000000
         7.192000	    0.000000	    0.000000
         7.194000	    0.000000	    0.000000
         7.196000	    0.000000	    0.000000
         7.198000	    0.000000	    0.000000
         7.200000	    0.000000	    0.000000
         7.202000	    0.000000	    0.000000
         7.204000	    0.000000	    0.000000
         7.206000	    0.000000	    0.000000
         7.208000	    0.000000	    0.000000
         7.210000	    0.000000	    0.000000
         7.212000	    0.000000	    0.000000
         7.214000	    0.000000	    0.000000
         7.216000	    0.000000	    0.000000
         7.218000	    0.000000	    0.000000
         7.220000	    0.000000	    0.000000
         7.222000	    0.000000	    0.000000
         7.224000	    0.000000	    0.000000
         7.226000	    0.000000	    0.000000
         7.228000	    0.000000	    0.000000
         7.230000	    0.000000	    0.000000
         7.232000	    0.000000	    0.000000
         7.234000	    0.000000	    0.000000
         7.236000	    0.000000	    0.000000
         7.238000	    0.000000	    0.000000
         7.240000	    0.000000	    0.000000
         7.242000	    0.000000	    0.000000
         7.244000	    0.000000	    0.000000
         7.246000	    0.000000	    0.000000
         7.248000	    0.000000	    0.000000
         7.250000	    0.000000	    0.000000
         7.252000	    0.000000	    0.000000
         7.254000	    0.000000	    0.000000
         7.256000	    0.000000	    0.000000
         7.258000	    0.000000	    0.000000
         7.260000	    0.000000	    0.000000
         7.262000	    0.000000	    0.000000
         7.264000	    0.000000	    0.000000
         7.266000	    0.000000	    0.000000
         7.268000	    0.000000	    0.000000
         7.270000	    0.000000	    0.000000
         7.272000	    0.000000	    0.000000
         7.274000	    0.000000	    0.000000
         7.276000	    0.000000	    0.000000
         7.278000	    0.000000	    0.000000
         7.280000	    0.000000	    0.000000
         7.282000	    0.000000	    0.000000
         7.284000	    0.000000	    0.000000
         7.286000	    0.000000	    0.000000
         7.288000	    0.000000	    0.000000
         7.290000	    0.000000	    0.000000
         7.292000	    0.000000	    0.000000
         7.294000	    0.000000	    0.000000
         7.296000	    0.000000	    0.000000
         7.298000	    0.000000	    0.000000
         7.300000	    0.000000	    0.000000
         7.302000	    0.000000	    0.000000
         7.304000	    0.000000	    0.000000
         7.306000	    0.000000	    0.000000
         7.308000	    0.000000	    0.000000
         7.310000	    0.000000	    0.000000
         7.312000	    0.000000	    0.000000
         7.314000	    0.000000	    0.000000
         7.316000	    0.000000	    0.000000
         7.318000	    0.000000	    0.000000
         7.320000	    0.000000	    0.000000
         7.322000	    0.000000	    0.000000
         7.324000	    0.000000	    0.000000
         7.326000	    0.000000	    0.000000
         7.328000	    0.000000	    0.000000
         7.330000	    0.000000	    0.000000
         7.332000	    0.000000	    0.000000
         7.334000	    0.000000	    0.000000
         7.336000	    0.000000	    0.000000
         7.338000	    0.000000	    0.000000
         7.340000	    0.000000	    0.000000
         7.342000	    0.000000	    0.000000
         7.344000	    0.000000	    0.000000
         7.346000	    0.000000	    0.000000
         7.348000	    0.000000	    0.000000
         7.350000	    0.000000	    0.000000
         7.352000	    0.000000	    0.000000
         7.354000	    0.000000	    0.000000
         7.356000	    0.000000	    0.000000
         7.358000	    0.000000	    0.000000
         7.360000	    0.000000	    0.000000
         7.362000	    0.000000	    0.000000
         7.364000	    0.000000	    0.000000
         7.366000	    0.000000	    0.000000
         7.368000	    0.000000	    0.000000
         7.370000	    0.000000	    0.000000
         7.372000	    0.000000	    0.000000
         7.374000	    0.000000	    0.000000
         7.376000	    0.000000	    0.000000
         7.378000	    0.000000	    0.000000
         7.380000	    0.000000	    0.000000
         7.382000	    0.000000	    0.000000
         7.384000	    0.000000	    0.000000
         7.386000	    0.000000	    0.000000
         7.388000	    0.000000	    0.000000
         7.390000	    0.000000	    0.000000
         7.392000	    0.000000	    0.000000
         7.394000	    0.000000	    0.000000
         7.396000	    0.000000	    0.000000
         7.398000	    0.000000	    0.000000
         7.400000	    0.000000	    0.000000
         7.402000	    0.000000	    0.000000
         7.404000	    0.000000	    0.000000
         7.406000	    0.000000	    0.000000
         7.408000	    0.000000	    0.000000
         7.410000	    0.000000	    0.000000
         7.412000	    0.000000	    0.000000
         7.414000	    0.000000	    0.000000
         7.416000	    0.000000	    0.000000
         7.418000	    0.000000	    0.000000
         7.420000	    0.000000	    0.000000
         7.422000	    0.000000	    0.000000
         7.424000	    0.000000	    0.000000
         7.426000	    0.000000	    0.000000
         7.428000	    0.000000	    0.000000
         7.430000	    0.000000	    0.000000
         7.432000	    0.000000	    0.000000
         7.434000	    0.000000	    0.000000
         7.436000	    0.000000	    0.000000
         7.438000	    0.000000	    0.000000
         7.440000	    0.000000	    0.000000
         7.442000	    0.000000	    0.000000
         7.444000	    0.000000	    0.000000
         7.446000	    0.000000	    0.000000
         7.448000	    0.000000	    0.000000
         7.450000	    0.000000	    0.000000
         7.452000	    0.000000	    0.000000
         7.454000	    0.000000	    0.000000
         7.456000	    0.000000	    0.000000
         7.458000	    0.000000	    0.000000
         7.460000	    0.000000	    0.000000
         7.462000	    0.000000	    0.000000
         7.464000	    0.000000	    0.000000
         7.466000	    0.000000	    0.000000
         7.468000	    0.000000	    0.000000
         7.470000	    0.000000	    0.000000
         7.472000	    0.000000	    0.000000
         7.474000	    0.000000	    0.000000
         7.476000	    0.000000	    0.000000
         7.478000	    0.000000	    0.000000
         7.480000	    0.000000	    0.000000
         7.482000	    0.000000	    0.000000
         7.484000	    0.000000	    0.000000
         7.486000	    0.000000	    0.000000
         7.488000	    0.000000	    0.000000
         7.490000	    0.000000	    0.000000
         7.492000	    0.000000	    0.000000
         7.494000	    0.000000	    0.000000
         7.496000	    0.000000	    0.000000
         7.498000	    0.000000	    0.000000
         7.500000	    0.000000	    0.000000
         7.502000	    0.000000	    0.000000
         7.504000	    0.000000	    0.000000
         7.506000	    0.000000	    0.000000
         7.508000	    0.000000	    0.000000
         7.510000	    0.000000	    0.000000
         7.512000	    0.000000	    0.000000
         7.514000	    0.000000	    0.000000
         7.516000	    0.000000	    0.000000
         7.518000	    0.000000	    0.000000
         7.520000	    0.000000	    0.000000
         7.522000	    0.000000	    0.000000
         7.524000	    0.000000	    0.000000
         7.526000	    0.000000	    0.000000
         7.528000	    0.000000	    0.000000
         7.530000	    0.000000	    0.000000
         7.532000	    0.000000	    0.000000
         7.534000	    0.000000	    0.000000
         7.536000	    0.000000	    0.000000
         7.538000	    0.000000	    0.000000
         7.540000	    0.000000	    0.000000
         7.542000	    0.000000	    0.000000
         7.544000	    0.000000	    0.000000
         7.546000	    0.000000	    0.000000
         7.548000	    0.000000	    0.000000
         7.550000	    0.000000	    0.000000
         7.552000	    0.000000	    0.000000
         7.554000	    0.000000	    0.000000
         7.556000	    0.000000	    0.000000
         7.558000	    0.000000	    0.000000
         7.560000	    0.000000	    0.000000
         7.562000	    0.000000	    0.000000
         7.564000	    0.000000	    0.000000
         7.566000	    0.000000	    0.000000
         7.568000	    0.000000	    0.000000
         7.570000	    0.000000	    0.000000
         7.572000	    0.000000	    0.000000
         7.574000	    0.000000	    0.000000
         7.576000	    0.000000	    0.000000
         7.578000	    0.000000	    0.000000
         7.580000	    0.000000	    0.000000
         7.582000	    0.000000	    0.000000
         7.584000	    0.000000	    0.000000
         7.586000	    0.000000	    0.000000
         7.588000	    0.000000	    0.000000
         7.590000	    0.000000	    0.000000
         7.592000	    0.000000	    0.000000
         7.594000	    0.000000	    0.000000
         7.596000	    0.000000	    0.000000
         7.598000	    0.000000	    0.000000
         7.600000	    0.000000	    0.000000
         7.602000	    0.000000	    0.000000
         7.604000	    0.000000	    0.000000
         7.606000	    0.000000	    0.000000
         7.608000	    0.000000	    0.000000
         7.610000	    0.000000	    0.000000
         7.612000	    0.000000	    0.000000
         7.614000	    0.000000	    0.000000
         7.616000	    0.000000	    0.000000
         7.618000	    0.000000	    0.000000
         7.620000	    0.000000	    0.000000
         7.622000	    0.000000	    0.000000
         7.624000	    0.000000	    0.000000
         7.626000	    0.000000	    0.000000
         7.628000	    0.000000	    0.000000
         7.630000	    0.000000	    0.000000
         7.632000	    0.000000	    0.000000
         7.634000	    0.000000	    0.000000
         7.636000	    0.000000	    0.000000
         7.638000	    0.000000	    0.000000
         7.640000	    0.000000	    0.000000
         7.642000	    0.000000	    0.000000
         7.644000	    0.000000	    0.000000
         7.646000	    0.000000	    0.000000
         7.648000	    0.000000	    0.000000
         7.650000	    0.000000	    0.000000
         7.652000	    0.000000	    0.000000
         7.654000	    0.000000	    0.000000
         7.656000	    0.000000	    0.000000
         7.658000	    0.000000	    0.000000
         7.660000	    0.000000	    0.000000
         7.662000	    0.000000	    0.000000
         7.664000	    0.000000	    0.000000
         7.666000	    0.000000	    0.000000
         7.668000	    0.000000	    0.000000
         7.670000	    0.000000	    0.000000
         7.672000	    0.000000	    0.000000
         7.674000	    0.000000	    0.000000
         7.676000	    0.000000	    0.000000
         7.678000	    0.000000	    0.000000
         7.680000	    0.000000	    0.000000
         7.682000	    0.000000	    0.000000
         7.684000	    0.000000	    0.000000
         7.686000	    0.000000	    0.000000
         7.688000	    0.000000	    0.000000
         7.690000	    0.000000	    0.000000
         7.692000	    0.000000	    0.000000
         7.694000	    0.000000	    0.000000
         7.696000	    0.000000	    0.000000
         7.698000	    0.000000	    0.000000
         7.700000	    0.000000	    0.000000

